Filename:	Stare_100_20181024_05.hpl
System ID:	100
Number of gates:	556
Range gate length (m):	18.0
Gate length (pts):	6
Pulses/ray:	1000
No. of rays in file:	1
Scan type:	Stare
Focus range:	65535
Start time:	20181024 05:12:10.90
Resolution (m/s):	0.0382
Altitude of measurement (center of gate) = (range gate + 0.5) * Gate length
Data line 1: Decimal time (hours)  Azimuth (degrees)  Elevation (degrees) Pitch (degrees) Roll (degrees)
f9.6,1x,f6.2,1x,f6.2
Data line 2: Range Gate  Doppler (m/s)  Intensity (SNR + 1)  Beta (m-1 sr-1)
i3,1x,f6.4,1x,f8.6,1x,e12.6 - repeat for no. gates
****
 5.203000  91.00  90.00 -0.00 -0.01
  0 -0.0992 1.002618  1.474105E-7
  1 -1.6281 1.008520  4.800325E-7
  2 -13.0942 1.151798  8.560648E-6
  3 -0.9401 1.014364  8.110329E-7
  4 4.4108 1.033992  1.922016E-6
  5 3.4935 1.053433  3.026420E-6
  6 -12.7120 1.033285  1.888892E-6
  7 -3.2715 1.017973  1.022206E-6
  8 -4.8768 1.026609  1.517089E-6
  9 -6.1381 1.017288  9.883598E-7
 10 -4.8768 1.031120  1.784337E-6
 11 -2.6218 1.050605  2.910857E-6
 12 -0.1757 1.021921  1.265298E-6
 13 6.3218 1.042767  2.477599E-6
 14 -3.1569 1.016328  9.496611E-7
 15 -1.1312 1.034819  2.033545E-6
 16 4.7165 1.037687  2.210757E-6
 17 1.3914 1.041513  2.446494E-6
 18 -9.9601 1.015947  9.443934E-7
 19 -14.5466 1.048825  2.906103E-6
 20 3.6846 1.015313  9.163161E-7
 21 0.7034 1.015513  9.334050E-7
 22 2.9966 1.024572  1.486945E-6
 23 -3.4244 1.043006  2.618027E-6
 24 4.0286 1.003367  2.062630E-7
 25 3.7228 1.026124  1.610388E-6
 26 -1.6663 1.031076  1.928207E-6
 27 -0.4814 1.045193  2.823184E-6
 28 -1.6663 1.028657  1.802707E-6
 29 -1.1312 1.016091  1.019442E-6
 30 -10.7627 1.017492  1.116347E-6
 31 0.8563 1.041083  2.641724E-6
 32 5.9396 1.038008  2.462873E-6
 33 14.7303 1.017251  1.126641E-6
 34 -16.4958 1.013532  8.908752E-7
 35 16.7942 1.014628  9.709843E-7
 36 -13.4764 1.027561  1.844711E-6
 37 -11.4125 1.005107  3.447308E-7
 38 7.3537 1.009863  6.715928E-7
 39 3.4170 1.009782  6.719738E-7
 40 -12.5973 1.014664  1.016370E-6
 41 -13.8968 0.999323 -4.735069E-8
 42 -5.5265 1.022017  1.554152E-6
 43 4.9076 1.014664  1.044819E-6
 44 7.6213 1.020080  1.444372E-6
 45 -12.2916 1.003382  2.456320E-7
 46 4.6401 1.006138  4.501308E-7
 47 4.6019 1.024497  1.814145E-6
 48 4.9841 1.031239  2.336508E-6
 49 -12.8266 1.022434  1.694860E-6
 50 5.4427 0.998103 -1.447484E-7
 51 -12.7502 0.993429 -5.066820E-7
 52 4.6401 1.018069  1.407685E-6
 53 -14.8141 1.017706  1.393843E-6
 54 -17.9864 1.041882  3.331862E-6
 55 -12.8649 1.032028  2.575073E-6
 56 6.2836 1.004972  4.040160E-7
 57 -12.9795 1.008313  6.828689E-7
 58 13.9277 1.017167  1.425453E-6
 59 5.8249 0.998067 -1.622502E-7
 60 -7.3229 1.014718  1.249121E-6
 61 18.2466 1.003381  2.900943E-7
 62 -10.8392 1.011470  9.951935E-7
 63 5.1752 1.000633  5.552739E-8
 64 2.9584 0.988222 -1.044988E-6
 65 -12.9031 1.001983  1.778909E-7
 66 -11.7565 1.036125  3.278261E-6
 67 4.3726 1.022538  2.068578E-6
 68 -12.9031 1.011896  1.104278E-6
 69 -14.1644 1.014277  1.340588E-6
 70 -6.9025 1.007098  6.741470E-7
 71 -5.2590 1.016615  1.596301E-6
 72 8.8826 1.009657  9.385317E-7
 73 14.0423 1.004529  4.452522E-7
 74 12.5135 1.003715  3.694685E-7
 75 15.9533 1.019670  1.979295E-6
 76 -15.8843 1.012409  1.263250E-6
 77 4.7930 1.019489  2.007207E-6
 78 4.8312 1.019231  2.003876E-6
 79 13.7748 1.003198  3.372024E-7
 80 7.1244 1.004136  4.411813E-7
 81 14.1570 1.024136  2.604770E-6
 82 13.2397 1.008643  9.437976E-7
 83 15.7622 1.020456  2.260018E-6
 84 -10.6481 1.001834  2.049626E-7
 85 -16.6487 1.033177  3.752579E-6
 86 -13.1706 0.989154 -1.241301E-6
 87 6.7422 1.046765  5.415225E-6
 88 -13.5146 1.014026  1.643377E-6
 89 -10.8010 1.025104  2.976089E-6
 90 -6.3674 1.016945  2.032520E-6
 91 -5.8323 0.980655 -2.347820E-6
 92 -13.5146 0.991402 -1.055825E-6
 93 -14.0497 1.002806  3.485973E-7
 94 -15.1963 1.008868  1.114912E-6
 95 4.9076 1.025931  3.298340E-6
 96 15.8005 1.000729  9.387595E-8
 97 6.0543 1.040534  5.277982E-6
 98 -13.5910 1.039838  5.248280E-6
 99 5.7103 1.031260  4.166661E-6
100 -16.8780 1.024055  3.243876E-6
101 6.5511 1.025486  3.477061E-6
102 -12.8649 1.016574  2.287697E-6
103 -12.3680 0.994911 -7.105997E-7
104 -11.9476 1.042254  5.969256E-6
105 -2.7364 0.987159 -1.835225E-6
106 -14.3937 1.021565  3.117763E-6
107 -11.6418 1.010441  1.527068E-6
108 13.3161 1.018063  2.672496E-6
109 -11.6418 1.013653  2.043294E-6
110 -7.7815 1.012297  1.861578E-6
111 4.1815 1.012484  1.911736E-6
112 -14.8905 1.009698  1.502116E-6
113 -19.7828 1.012769  2.000529E-6
114 4.6783 1.018638  2.953527E-6
115 -13.8968 0.997469 -4.057041E-7
116 15.1889 1.013113  2.125715E-6
117 4.9459 0.990845 -1.500959E-6
118 5.5956 1.022323  3.701481E-6
119 -4.7621 1.021895  3.671513E-6
120 3.9903 1.018961  3.215528E-6
121 3.7228 1.012997  2.228901E-6
122 14.0423 0.995805 -7.274321E-7
123 15.0743 1.044565  7.815307E-6
124 5.3281 1.004915  8.715880E-7
125 -13.2853 1.027216  4.880108E-6
126 5.4809 1.002539  4.603322E-7
127 -5.1061 1.012850  2.355594E-6
128 -11.4507 0.997588 -4.469916E-7
129 -4.3417 1.003977  7.453266E-7
130 6.2836 1.021935  4.155681E-6
131 -13.5146 0.995478 -8.660311E-7
132 -13.7057 1.022131  4.285284E-6
133 -14.8523 0.995594 -8.624221E-7
134 -13.2853 1.004418  8.741686E-7
135 15.7622 1.009201  1.840500E-6
136 -13.3999 1.013170  2.662872E-6
137 -14.0879 1.010270  2.098864E-6
138 14.3481 0.996599 -7.025400E-7
139 6.2454 1.005203  1.086357E-6
140 -8.5460 0.999906 -1.983382E-8
141 7.6213 1.007739  1.650553E-6
142 -13.6293 1.028990  6.248413E-6
143 -14.0115 0.992270 -1.683804E-6
144 -11.3360 1.013985  3.078406E-6
145 -11.9093 1.001522  3.385641E-7
146 -9.8837 1.013673  3.073366E-6
147 -8.7371 0.994440 -1.262829E-6
148 14.1188 1.024472  5.616552E-6
149 16.8324 1.025125  5.826215E-6
150 6.2454 0.990619 -2.197875E-6
151 5.6338 1.009515  2.252489E-6
152 -13.5146 1.016973  4.059366E-6
153 7.8506 1.014108  3.408787E-6
154 -15.8461 1.014784  3.608826E-6
155 14.8450 1.021552  5.314555E-6
156 4.0668 1.001442  3.592498E-7
157 -9.7308 1.020831  5.241625E-6
158 -11.7947 1.001437  3.653034E-7
159 -13.0942 1.019110  4.906307E-6
160 -15.3492 0.990987 -2.337128E-6
161 15.2654 0.991434 -2.243640E-6
162 -11.7565 1.013253  3.505877E-6
163 6.4365 1.004099  1.095007E-6
164 -2.6218 1.021736  5.864560E-6
165 -14.0497 0.990449 -2.602349E-6
166 1.2003 1.029064  7.997546E-6
167 5.5956 1.020103  5.585984E-6
168 5.1752 1.010669  2.993667E-6
169 -13.3235 1.007324  2.075045E-6
170 6.5129 1.007175  2.052702E-6
171 -11.2978 1.013028  3.763294E-6
172 13.7748 1.020820  6.072276E-6
173 3.7228 1.009677  2.849558E-6
174 4.9459 1.038347  1.140031E-5
175 5.1370 1.036385  1.092061E-5
176 13.5072 1.018012  5.457765E-6
177 17.7115 0.992138 -2.404756E-6
178 -13.0942 1.034753  1.073112E-5
179 -12.4062 1.013498  4.207446E-6
180 -13.8968 1.004922  1.548598E-6
181 3.5317 1.009463  3.005302E-6
182 -6.1763 1.021149  6.779735E-6
183 -13.5146 0.995953 -1.309315E-6
184 -14.2408 1.005522  1.803241E-6
185 6.3600 0.986508 -4.446764E-6
186 -13.5528 0.993981 -2.002245E-6
187 -13.2853 1.019014  6.382786E-6
188 15.0743 1.044015  1.491088E-5
189 -7.1318 1.007327  2.504721E-6
190 -11.7947 1.008722  3.008895E-6
191 -15.4638 1.012694  4.418978E-6
192 -12.5591 0.998193 -6.349231E-7
193 6.2071 1.018597  6.591760E-6
194 3.3406 1.004255  1.521898E-6
195 6.2454 1.031135  1.123482E-5
196 7.6595 1.016843  6.132033E-6
197 -12.5591 1.041809  1.535692E-5
198 6.0925 1.041830  1.550101E-5
199 15.6476 1.036726  1.373031E-5
200 15.5711 1.018215  6.869884E-6
201 -12.6355 1.000257  9.760915E-8
202 -16.3811 0.988355 -4.469597E-6
203 5.9396 1.047972  1.857284E-5
204 4.9841 1.020422  7.975407E-6
205 -11.4889 1.011425  4.500389E-6
206 3.3406 1.040893  1.624807E-5
207 -5.2590 1.010251  4.108145E-6
208 14.2716 1.033496  1.353925E-5
209 4.8312 1.037894  1.544843E-5
210 14.3863 1.003070  1.262457E-6
211 7.0480 1.006106  2.531777E-6
212 5.4045 1.008687  3.632619E-6
213 18.0172 1.006496  2.739711E-6
214 9.5323 1.004925  2.094486E-6
215 -11.7182 1.017214  7.382405E-6
216 -6.8643 1.010929  4.726368E-6
217 -4.6475 1.006327  2.758811E-6
218 14.5774 1.030655  1.347889E-5
219 5.6338 1.019546  8.665617E-6
220 4.9841 0.993508 -2.902287E-6
221 -13.4382 0.999827 -7.789230E-8
222 5.4809 1.017752  8.066968E-6
223 7.2391 1.020037  9.180134E-6
224 -4.2653 1.025815  1.192369E-5
225 18.6670 0.997472 -1.177332E-6
226 5.1370 1.012741  5.981412E-6
227 -15.6167 0.999986 -6.553394E-9
228 -13.2853 1.021844  1.042119E-5
229 -10.1130 1.028176  1.355047E-5
230 14.5774 1.013787  6.683822E-6
231 -13.7057 1.015627  7.636293E-6
232 14.3099 1.022141  1.090547E-5
233 15.1889 1.028567  1.418281E-5
234 -13.4764 1.011141  5.575007E-6
235 3.5317 0.999326 -3.398839E-7
236 16.9089 1.012961  6.588541E-6
237 -1.7045 1.010376  5.315970E-6
238 6.8569 1.002632  1.358966E-6
239 -13.7057 1.008405  4.373960E-6
240 -11.1832 1.013931  7.305862E-6
241 7.9653 1.014929  7.890230E-6
242 15.6858 1.005984  3.187076E-6
243 -5.7941 1.046789  2.511165E-5
244 -9.0046 1.016530  8.940154E-6
245 -11.1067 1.013812  7.527174E-6
246 6.5129 1.029804  1.636681E-5
247 5.3663 1.022451  1.242291E-5
248 -11.9858 1.013792  7.689434E-6
249 5.4809 0.999165 -4.692650E-7
250 5.6338 1.032560  1.842901E-5
251 14.1188 1.002224  1.268441E-6
252 16.1444 1.020758  1.192669E-5
253 5.9396 1.004145  2.399270E-6
254 13.3926 1.018911  1.102863E-5
255 13.9659 1.014340  8.424909E-6
256 14.5774 1.006415  3.797045E-6
257 -13.6675 0.997203 -1.667543E-6
258 15.1507 1.000645  3.876428E-7
259 -14.2026 0.981929 -1.093475E-5
260 -3.9977 1.027772  1.692818E-5
261 -14.8905 1.010446  6.413991E-6
262 -8.5077 1.022593  1.397322E-5
263 17.0617 1.016732  1.042374E-5
264 5.5192 1.033340  2.092083E-5
265 -13.5146 1.004042  2.554915E-6
266 -2.8893 1.029346  1.868189E-5
267 -13.8204 1.002559  1.640886E-6
268 -5.2590 1.002756  1.780013E-6
269 5.6720 1.033077  2.151317E-5
270 6.4365 1.006716  4.399062E-6
271 5.1370 1.013877  9.154345E-6
272 5.2898 0.993238 -4.492305E-6
273 -6.2145 1.014533  9.723834E-6
274 -14.7377 1.033638  2.266514E-5
275 3.9521 1.014849  1.007518E-5
276 14.5392 1.019833  1.355172E-5
277 -4.7621 1.017722  1.219418E-5
278 6.0543 1.024365  1.688205E-5
279 3.7992 0.988702 -7.882219E-6
280 4.5637 1.013320  9.357467E-6
281 3.9521 1.002656  1.879065E-6
282 5.6720 0.995173 -3.438216E-6
283 -14.6994 0.998744 -9.006224E-7
284 -15.3110 1.013203  9.533484E-6
285 -7.7815 1.018640  1.355145E-5
286 -12.5209 0.973836 -1.915165E-5
287 10.4114 1.006901  5.085921E-6
288 -14.2026 1.014831  1.100377E-5
289 5.0987 1.000829  6.193601E-7
290 -13.2471 1.000885  6.657885E-7
291 -15.2345 1.020378  1.542786E-5
292 -12.7502 1.007657  5.836126E-6
293 -13.0942 0.995668 -3.323904E-6
294 -13.4382 1.006085  4.699760E-6
295 5.0987 1.005635  4.381748E-6
296 -14.8141 1.040510  3.170742E-5
297 -13.4382 1.033333  2.626332E-5
298 5.0223 0.998741 -9.984717E-7
299 -7.0936 0.993868 -4.895196E-6
300 -10.9156 1.010499  8.436881E-6
301 5.5956 1.011634  9.410150E-6
302 4.0668 1.010888  8.864557E-6
303 15.5711 1.004115  3.371871E-6
304 -5.9087 1.020364  1.679580E-5
305 -12.5591 1.017094  1.419043E-5
306 -15.3492 1.023813  1.989540E-5
307 -14.4701 1.005385  4.528244E-6
308 -14.0115 1.011033  9.337258E-6
309 -10.0748 1.030177  2.570261E-5
310 -5.4883 1.045700  3.917293E-5
311 -17.1073 1.009586  8.269012E-6
312 12.8957 0.976757 -2.017861E-5
313 6.2071 1.017085  1.492693E-5
314 5.5956 1.029931  2.631517E-5
315 5.7867 1.020597  1.822345E-5
316 -3.1569 1.007249  6.454445E-6
317 6.5893 1.031993  2.866388E-5
318 -12.0622 1.026480  2.387374E-5
319 -12.7884 1.016642  1.509765E-5
320 13.0104 1.049116  4.483625E-5
321 6.8569 1.018923  1.738167E-5
322 6.4365 0.989688 -9.530707E-6
323 -4.9532 1.016732  1.556041E-5
324 -3.5773 1.006931  6.485414E-6
325 -12.1769 0.994621 -5.064351E-6
326 9.9145 1.009032  8.555960E-6
327 -12.5973 1.010571  1.007553E-5
328 5.5192 1.000094  9.056565E-8
329 6.0925 1.015512  1.496580E-5
330 5.6338 1.008175  7.934901E-6
331 -12.4062 0.998058 -1.896599E-6
332 -7.4758 1.020434  2.007583E-5
333 5.4427 1.035342  3.493222E-5
334 5.5956 1.029149  2.898455E-5
335 -11.0303 1.002810  2.810934E-6
336 4.2961 1.011245  1.131600E-5
337 6.4365 1.006283  6.360645E-6
338 -5.2208 1.022257  2.266737E-5
339 -12.8649 0.982837 -1.758310E-5
340 15.9151 1.020285  2.090540E-5
341 15.9916 0.993599 -6.635714E-6
342 6.5129 1.004889  5.098688E-6
343 5.5574 1.019374  2.032347E-5
344 -6.0616 1.017224  1.817405E-5
345 14.0041 1.001037  1.100690E-6
346 -4.2653 1.018526  1.977756E-5
347 7.4302 1.027280  2.929382E-5
348 13.4308 1.013464  1.454179E-5
349 -4.9532 1.020017  2.174571E-5
350 15.6094 1.032740  3.577343E-5
351 6.1689 1.014256  1.566666E-5
352 5.6720 1.008696  9.611533E-6
353 -7.2465 1.012364  1.374525E-5
354 -5.2208 1.040386  4.515541E-5
355 -11.1449 0.996492 -3.944362E-6
356 6.9715 1.006499  7.350389E-6
357 -12.5209 1.021437  2.438319E-5
358 6.5511 1.022377  2.559703E-5
359 6.3600 1.003871  4.453464E-6
360 -9.5779 1.007674  8.878572E-6
361 16.2209 1.000908  1.056751E-6
362 -14.4319 1.029194  3.415744E-5
363 -12.2151 1.034774  4.091641E-5
364 -10.5334 1.001355  1.602771E-6
365 -13.3235 0.998190 -2.153751E-6
366 -15.6167 0.982773 -2.061235E-5
367 4.9841 0.993982 -7.240619E-6
368 -4.0359 1.027874  3.372545E-5
369 -4.1124 1.024553  2.987151E-5
370 5.1752 1.009144  1.118667E-5
371 6.4747 1.001562  1.920925E-6
372 -13.9350 0.999827 -2.143093E-7
373 3.7610 1.002091  2.600177E-6
374 -9.3868 1.017034  2.130270E-5
375 14.6921 0.997624 -2.988286E-6
376 -15.0434 0.999568 -5.465977E-7
377 5.9396 1.014114  1.794201E-5
378 -12.8649 1.035046  4.479424E-5
379 4.6019 0.998709 -1.659333E-6
380 4.6019 0.993086 -8.933183E-6
381 -4.6475 1.021496  2.792430E-5
382 4.7930 1.003207  4.188287E-6
383 15.4947 0.997668 -3.062447E-6
384 -12.8649 1.028840  3.807301E-5
385 2.0411 1.021753  2.887092E-5
386 13.3161 1.018872  2.518174E-5
387 -12.1769 1.009623  1.290899E-5
388 -13.7439 1.027724  3.738937E-5
389 6.7804 1.028916  3.920389E-5
390 15.9533 1.016055  2.188240E-5
391 13.0486 0.990915 -1.244906E-5
392 -12.1769 0.976523 -3.233876E-5
393 -1.8956 1.014288  1.978507E-5
394 -3.6920 1.040191  5.594582E-5
395 5.4427 1.009496  1.328730E-5
396 3.7610 1.032524  4.575035E-5
397 4.3726 1.020359  2.878731E-5
398 6.4365 1.013783  1.959110E-5
399 4.8312 1.007997  1.142650E-5
400 6.8569 1.009476  1.361008E-5
401 -7.9726 0.971961 -4.047914E-5
402 -13.9733 1.017539  2.545192E-5
403 -14.9670 1.019623  2.862279E-5
404 -13.2471 1.013079  1.917481E-5
405 -11.6036 0.988176 -1.742397E-5
406 14.4627 1.001513  2.240447E-6
407 13.7366 0.999922 -1.161109E-7
408 8.5004 1.034926  5.226474E-5
409 -6.4438 1.020841  3.134572E-5
410 15.2272 1.009517  1.438758E-5
411 -6.0998 1.021561  3.275973E-5
412 2.7673 0.992101 -1.206251E-5
413 6.6658 1.012899  1.979749E-5
414 5.4045 1.027981  4.316306E-5
415 -14.1261 1.012410  1.923933E-5
416 6.7422 0.997857 -3.338807E-6
417 -11.8711 1.037934  5.940221E-5
418 -2.5071 0.987998 -1.888796E-5
419 4.8312 1.018344  2.901394E-5
420 -13.6675 1.008481  1.348149E-5
421 13.7366 1.044141  7.051268E-5
422 4.9459 1.022700  3.644216E-5
423 6.3218 1.026409  4.260634E-5
424 -4.7239 0.988197 -1.913710E-5
425 6.7422 1.014136  2.303157E-5
426 17.1764 1.031373  5.136984E-5
427 4.7548 0.990085 -1.631401E-5
428 -14.1261 1.006897  1.140443E-5
429 -13.2471 1.004755  7.901494E-6
430 5.9014 1.016500  2.755019E-5
431 12.6282 1.015393  2.582803E-5
432 -12.7120 1.019632  3.309994E-5
433 4.6019 1.006220  1.053815E-5
434 15.0361 0.999717 -4.812181E-7
435 -7.1700 1.009824  1.680532E-5
436 -12.0622 1.014743  2.534296E-5
437 5.3663 1.001743  3.010691E-6
438 -13.3999 0.989450 -1.831002E-5
439 -12.9031 1.013199  2.301791E-5
440 -6.9025 1.030037  5.263393E-5
441 -8.5842 1.031236  5.499562E-5
442 -15.9989 1.001964  3.474753E-6
443 -12.1005 1.001426  2.534387E-6
444 -12.6355 1.014789  2.641334E-5
445 -4.7621 1.014967  2.685831E-5
446 5.3663 1.027552  4.967483E-5
447 6.7422 1.021894  3.966052E-5
448 -6.9025 1.001873  3.408625E-6
449 -13.2471 1.010808  1.976440E-5
450 -12.7884 0.989564 -1.917420E-5
451 -12.7884 0.998297 -3.143915E-6
452 -13.0560 1.017777  3.296761E-5
453 4.9076 1.006742  1.256150E-5
454 4.8312 1.010291  1.926345E-5
455 15.1507 1.023331  4.387689E-5
456 -6.2527 1.024439  4.617483E-5
457 -5.4119 1.019993  3.795056E-5
458 14.5774 0.998199 -3.433761E-6
459 4.4490 1.005212  9.985745E-6
460 -14.9670 0.982922 -3.286875E-5
461 -12.3680 1.005834  1.127993E-5
462 -16.3429 1.028651  5.565071E-5
463 14.7303 1.015294  2.984325E-5
464 -13.4382 0.993843 -1.207027E-5
465 -14.5848 1.006569  1.293651E-5
466 4.6783 1.012806  2.533345E-5
467 -3.6155 1.011910  2.366755E-5
468 13.1250 0.993908 -1.216217E-5
469 6.8951 1.023911  4.795069E-5
470 -11.8329 1.037927  7.640172E-5
471 -13.1706 1.008122  1.643551E-5
472 -15.9989 0.983096 -3.436163E-5
473 -12.3680 1.011272  2.301698E-5
474 5.1752 1.008286  1.699601E-5
475 -16.2665 1.008456  1.742148E-5
476 -4.7239 1.011994  2.482301E-5
477 -13.8586 1.020640  4.290676E-5
478 15.3036 1.015249  3.184197E-5
479 -11.8711 1.014834  3.111237E-5
480 -5.3354 0.986212 -2.904781E-5
481 -15.9989 1.026553  5.619072E-5
482 -5.2972 1.034924  7.423304E-5
483 3.1113 1.018526  3.955241E-5
484 3.6846 1.007944  1.703415E-5
485 0.5505 1.030604  6.591830E-5
486 15.9533 0.999236 -1.653671E-6
487 6.5129 1.003482  7.566256E-6
488 6.5511 1.006047  1.319772E-5
489 -12.5973 1.006832  1.497574E-5
490 4.1815 1.033115  7.290632E-5
491 -6.3292 1.007141  1.579024E-5
492 -6.5967 0.998349 -3.667083E-6
493 -4.6857 1.026892  5.998323E-5
494 -12.4062 1.007157  1.603311E-5
495 -14.1261 1.030710  6.909666E-5
496 -6.4438 1.020429  4.616384E-5
497 -12.2916 1.016804  3.813731E-5
498 13.5837 1.023088  5.262303E-5
499 -13.7439 1.029270  6.700112E-5
500 -11.9093 1.017948  4.126182E-5
501 4.3343 1.029498  6.810514E-5
502 7.8124 1.014252  3.304744E-5
503 6.7804 1.015057  3.506173E-5
504 5.2516 1.029632  6.929877E-5
505 18.7817 1.035291  8.288300E-5
506 15.3418 1.001874  4.420329E-6
507 14.0423 1.017333  4.105465E-5
508 7.3920 1.016290  3.874855E-5
509 -13.9733 1.002855  6.820527E-6
510 -12.4062 1.008249  1.978866E-5
511 -12.4062 1.005029  1.211582E-5
512 11.7873 1.014143  3.421448E-5
513 14.6921 1.028743  6.982665E-5
514 -13.3617 0.989346 -2.598984E-5
515 4.6401 0.976244 -5.819606E-5
516 -4.9532 1.015005  3.691381E-5
517 -10.5334 1.018692  4.617677E-5
518 5.7485 1.004797  1.190067E-5
519 -15.7314 1.004003  9.972637E-6
520 -15.0052 1.005612  1.403883E-5
521 -12.8266 1.013343  3.351327E-5
522 -14.0497 1.002487  6.273606E-6
523 -12.6355 0.991980 -2.031135E-5
524 -12.3680 1.023191  5.897564E-5
525 -6.2909 1.012216  3.119359E-5
526 -10.3423 1.030767  7.889081E-5
527 -12.7502 1.020419  5.257158E-5
528 -13.8968 1.009199  2.378120E-5
529 12.8193 1.058051  1.506900E-4
530 5.4809 1.029668  7.732831E-5
531 8.4621 1.040646  1.063764E-4
532 -13.3235 1.018630  4.895586E-5
533 -12.9795 1.061134  1.613041E-4
534 3.6464 1.017513  4.639499E-5
535 -9.9983 0.972435 -7.332354E-5
536 -12.5209 0.997524 -6.612637E-6
537 15.3800 1.004620  1.238881E-5
538 -8.1255 1.020671  5.565448E-5
539 -13.4382 1.008302  2.244167E-5
540 6.0543 1.030495  8.276879E-5
541 -12.4444 0.993984 -1.639524E-5
542 6.3982 1.018753  5.130933E-5
543 -5.4883 1.026697  7.333874E-5
544 -12.5209 1.003556  9.807257E-6
545 -13.8968 0.996785 -8.901488E-6
546 7.6977 1.034478  9.585293E-5
547 15.0361 1.005606  1.564767E-5
548 -13.3617 1.001272  3.563876E-6
549 -12.7502 0.998813 -3.340926E-6
550 4.7165 0.996086 -1.105669E-5
551 -12.9413 1.020400  5.785016E-5
552 -14.5848 1.003502  9.971235E-6
553 5.7485 1.007462  2.132768E-5
554 -11.7947 1.007575  2.173812E-5
555 -14.1644 1.007134  2.055083E-5
 5.355514  91.00  90.00 -0.00 0.09
  0 -0.1757 0.920540 -4.473995E-6 
  1 -1.1312 0.923698 -4.299035E-6 
  2 -4.2653 1.098331  5.545376E-6 
  3 0.5123 1.048725  2.751099E-6 
  4 -18.7890 1.032993  1.865553E-6 
  5 -19.6681 1.025586  1.449154E-6 
  6 -0.1757 1.049771  2.824498E-6 
  7 18.7434 1.029740  1.691482E-6 
  8 1.0856 1.027663  1.577197E-6 
  9 17.9026 1.049348  2.821147E-6 
 10 18.3612 1.047720  2.736150E-6 
 11 -0.8254 1.004262  2.451628E-7 
 12 -1.8956 1.027216  1.570882E-6 
 13 9.1883 1.056228  3.257424E-6 
 14 -19.7063 0.999961 -2.288926E-9 
 15 -0.7490 1.016519  9.647580E-7 
 16 0.2065 1.014982  8.788705E-7 
 17 0.2447 1.017818  1.050032E-6 
 18 -2.8511 1.036815  2.180186E-6 
 19 8.6150 1.042495  2.529325E-6 
 20 -0.8636 1.043489  2.602263E-6 
 21 18.1319 1.013102  7.883596E-7 
 22 -2.1249 1.022880  1.384580E-6 
 23 -2.8511 1.043889  2.671762E-6 
 24 -1.5516 1.042029  2.574369E-6 
 25 0.7034 1.021105  1.300954E-6 
 26 -0.8254 1.042963  2.665822E-6 
 27 -1.9720 1.023499  1.467975E-6 
 28 -0.7490 1.020375  1.281683E-6 
 29 -0.5961 1.030911  1.958391E-6 
 30 0.1301 1.045613  2.911116E-6 
 31 -0.4432 1.024681  1.587037E-6 
 32 11.6727 1.039116  2.534697E-6 
 33 -19.4006 1.011127  7.267329E-7 
 34 -19.4006 0.996059 -2.594763E-7 
 35 5.2134 1.014930  9.910139E-7 
 36 9.9527 1.018397  1.231363E-6 
 37 -0.5579 1.022112  1.492667E-6 
 38 4.0286 1.019800  1.348207E-6 
 39 0.1683 1.010276  7.058934E-7 
 40 -16.8780 1.010254  7.107126E-7 
 41 15.3800 0.999222 -5.439455E-8 
 42 9.5323 1.005087  3.590662E-7 
 43 9.1501 1.019763  1.408165E-6 
 44 -2.7364 1.019463  1.399961E-6 
 45 18.1319 1.008559  6.215545E-7 
 46 16.8324 1.019077  1.398971E-6 
 47 18.2848 1.041645  3.084013E-6 
 48 -15.5403 1.019409  1.451683E-6 
 49 -18.1775 1.005853  4.421943E-7 
 50 19.0492 1.036280  2.768874E-6 
 51 -19.7445 1.005364  4.135960E-7 
 52 0.3594 1.026092  2.032672E-6 
 53 17.8261 1.000564  4.442418E-8 
 54 8.9208 1.052471  4.174275E-6 
 55 -19.4388 0.999628 -2.989555E-8 
 56 -12.2151 1.027886  2.266119E-6 
 57 18.1701 1.047661  3.914902E-6 
 58 18.6288 1.028841  2.394842E-6 
 59 -19.3241 1.009596  8.055658E-7 
 60 18.6670 1.022536  1.912640E-6 
 61 18.0937 1.003068  2.632751E-7 
 62 -19.8210 1.049706  4.312736E-6 
 63 -19.4770 1.017029  1.494044E-6 
 64 -19.5152 1.017062  1.513861E-6 
 65 2.1940 1.020020  1.796352E-6 
 66 7.4302 1.042656  3.870907E-6 
 67 -18.4450 1.029970  2.750691E-6 
 68 -19.8592 1.019947  1.851665E-6 
 69 8.9590 1.026626  2.500135E-6 
 70 -19.1330 1.020618  1.958275E-6 
 71 18.9345 1.026653  2.560757E-6 
 72 17.9408 1.019743  1.918810E-6 
 73 17.4057 1.015864  1.559698E-6 
 74 -18.7890 1.024199  2.406889E-6 
 75 18.7817 1.023458  2.360396E-6 
 76 17.9408 0.993973 -6.135836E-7 
 77 -18.8272 1.023415  2.411612E-6 
 78 -3.0040 1.007215  7.517704E-7 
 79 13.6219 1.018198  1.918576E-6 
 80 -18.2922 1.020488  2.185415E-6 
 81 -19.2859 1.008989  9.700999E-7 
 82 19.0874 1.002689  2.936464E-7 
 83 -2.1631 1.022583  2.494985E-6 
 84 6.5893 1.008555  9.562949E-7 
 85 18.7434 0.995523 -5.063547E-7 
 86 -11.0685 1.019717  2.256447E-6 
 87 7.2009 1.002833  3.280725E-7 
 88 16.6031 1.007654  8.968400E-7 
 89 16.4502 0.999414 -6.942647E-8 
 90 -8.3166 0.999812 -2.257591E-8 
 91 16.6795 1.018842  2.286806E-6 
 92 -1.9338 1.001315  1.615028E-7 
 93 4.2197 1.004931  6.127110E-7 
 94 -11.0303 1.017624  2.215657E-6 
 95 18.5523 1.004267  5.427730E-7 
 96 -2.4689 0.992991 -9.020959E-7 
 97 17.3293 1.013122  1.708651E-6 
 98 -18.3304 0.987938 -1.589069E-6 
 99 1.2767 0.987803 -1.625792E-6 
100 2.8055 1.003904  5.265165E-7 
101 -4.1124 1.017632  2.405567E-6 
102 18.7817 1.021332  2.944385E-6 
103 17.8261 0.992863 -9.966108E-7 
104 -17.1073 1.001016  1.435810E-7 
105 -19.2859 1.004241  6.061630E-7 
106 15.8387 1.015124  2.186529E-6 
107 19.1256 1.015677  2.292790E-6 
108 -19.7063 1.030939  4.577420E-6 
109 -16.8780 1.021318  3.190544E-6 
110 12.0166 1.005966  9.031267E-7 
111 16.7942 1.030133  4.614422E-6 
112 17.9408 1.007340  1.136964E-6 
113 -18.8272 0.992247 -1.214715E-6 
114 17.5204 1.022431  3.554535E-6 
115 -3.2333 1.022500  3.606304E-6 
116 18.7434 1.032228  5.224421E-6 
117 17.5968 1.006396  1.048575E-6 
118 17.9026 1.018457  3.060475E-6 
119 -17.8335 1.001090  1.827994E-7 
120 17.2146 0.998585 -2.399055E-7 
121 -15.7314 1.015730  2.697586E-6 
122 18.5141 0.983940 -2.785188E-6 
123 17.1764 1.006006  1.053238E-6 
124 -19.0948 1.015220  2.699050E-6 
125 7.7360 1.009351  1.676656E-6 
126 -19.8210 1.004965  9.001096E-7 
127 -19.5534 1.010210  1.871718E-6 
128 -19.5152 0.989340 -1.975854E-6 
129 15.5329 1.010817  2.027039E-6 
130 6.1307 1.038658  7.323838E-6 
131 -19.8974 1.001390  2.662570E-7 
132 18.9728 1.026219  5.076840E-6 
133 -19.1330 1.000852  1.667064E-7 
134 -19.7063 1.012843  2.541336E-6 
135 16.3355 1.033029  6.606659E-6 
136 16.4884 1.013015  2.631457E-6 
137 -18.8655 1.040693  8.316393E-6 
138 18.0937 0.989133 -2.244720E-6 
139 -19.1330 1.006959  1.452880E-6 
140 8.1182 1.017738  3.742955E-6 
141 8.4239 0.984660 -3.271633E-6 
142 -2.3160 1.026095  5.624473E-6 
143 -19.3623 0.997830 -4.726329E-7 
144 -1.8192 1.010879  2.394664E-6 
145 15.5711 0.994350 -1.256811E-6 
146 16.9853 1.011653  2.619302E-6 
147 18.7434 0.972500 -6.246095E-6 
148 -3.0804 0.998599 -3.215938E-7 
149 1.4296 1.030374  7.043574E-6 
150 18.2848 1.011235  2.632298E-6 
151 -16.2283 1.023200  5.491886E-6 
152 19.1256 0.989009 -2.628714E-6 
153 17.9026 1.027670  6.685750E-6 
154 -17.6806 1.012016  2.932984E-6 
155 18.0555 1.012470  3.075066E-6 
156 15.9533 1.032027  7.978032E-6 
157 -2.3925 1.027535  6.928441E-6 
158 16.5649 1.026621  6.766444E-6 
159 -18.3304 1.027147  6.969577E-6 
160 -19.6681 1.038402  9.958210E-6 
161 -18.2922 1.000006  1.446162E-9 
162 -19.5152 1.014007  3.705243E-6 
163 19.1256 1.019653  5.250656E-6 
164 18.7434 1.016505  4.453379E-6 
165 7.3920 1.002361  6.434011E-7 
166 18.0937 1.046094  1.268344E-5 
167 0.3976 1.037264  1.035456E-5 
168 7.3155 1.006558  1.840119E-6 
169 -19.6299 1.016142  4.573537E-6 
170 -18.4833 0.994665 -1.526391E-6 
171 17.5968 1.008759  2.530019E-6 
172 -18.7508 1.018693  5.452033E-6 
173 18.7817 1.012477  3.674191E-6 
174 -2.6600 1.003794  1.127975E-6 
175 13.1633 1.025349  7.608275E-6 
176 8.2710 1.037313  1.130590E-5 
177 16.7560 1.022762  6.962545E-6 
178 17.1000 1.011512  3.554761E-6 
179 7.6213 1.032815  1.022859E-5 
180 18.6670 1.025104  7.898705E-6 
181 18.5523 1.014026  4.454419E-6 
182 18.1701 1.017253  5.530836E-6 
183 -19.8592 1.014787  4.784455E-6 
184 17.6733 1.004804  1.568786E-6 
185 0.0536 1.035612  1.173717E-5 
186 6.0160 0.995017 -1.657629E-6 
187 18.6670 1.001621  5.443037E-7 
188 18.3612 1.022620  7.662879E-6 
189 -11.3743 1.019871  6.793428E-6 
190 -19.4770 1.043503  1.500782E-5 
191 18.5523 1.007528  2.620566E-6 
192 18.0555 1.009706  3.409460E-6 
193 -19.5152 1.033987  1.204641E-5 
194 -5.7941 1.026195  9.368033E-6 
195 17.7497 1.016197  5.844370E-6 
196 -6.9407 1.015225  5.543018E-6 
197 -19.2477 0.996995 -1.103642E-6 
198 18.8963 1.034419  1.275489E-5 
199 7.9271 1.013973  5.223719E-6 
200 16.4884 0.992959 -2.655669E-6 
201 15.6476 1.010969  4.173512E-6 
202 15.6476 1.015624  5.996520E-6 
203 10.2203 1.012684  4.910596E-6 
204 -19.0566 1.014237  5.560159E-6 
205 5.4809 1.005328  2.098678E-6 
206 16.4502 1.039518  1.570187E-5 
207 -2.4689 1.008605  3.448364E-6 
208 18.0555 1.022313  9.018977E-6 
209 -3.6155 1.026043  1.061703E-5 
210 -2.3542 1.005905  2.428028E-6 
211 -18.9419 1.008661  3.591411E-6 
212 7.1244 1.022903  9.577500E-6 
213 1.1238 1.003978  1.677423E-6 
214 19.0874 1.016900  7.187282E-6 
215 18.2848 1.014443  6.194167E-6 
216 -4.6092 1.025033  1.082582E-5 
217 9.1883 0.998490 -6.586534E-7 
218 18.5523 1.018641  8.196503E-6 
219 12.2077 1.012564  5.570521E-6 
220 18.5141 1.000670  2.995681E-7 
221 18.7817 1.011489  5.178261E-6 
222 8.6915 1.033608  1.527237E-5 
223 -18.8272 1.021749  9.964407E-6 
224 -1.7809 1.013856  6.400263E-6 
225 -1.8956 1.030902  1.439011E-5 
226 -17.7953 1.012839  6.027146E-6 
227 17.7879 0.999230 -3.644843E-7 
228 -19.7828 1.013692  6.532292E-6 
229 15.4565 0.994783 -2.508840E-6 
230 -19.1712 1.010195  4.942120E-6 
231 18.5141 1.005623  2.747499E-6 
232 17.5586 1.010154  5.001588E-6 
233 15.3418 0.991855 -4.043783E-6 
234 -12.9031 1.023506  1.176233E-5 
235 17.1764 1.018468  9.314363E-6 
236 -19.5917 1.013002  6.609201E-6 
237 6.2454 1.006335  3.245646E-6 
238 9.3794 1.018408  9.504832E-6 
239 -19.7063 1.005130  2.669603E-6 
240 -2.5071 1.012767  6.695562E-6 
241 -19.1712 1.016073  8.494445E-6 
242 18.6670 1.013698  7.295260E-6 
243 -1.1312 1.014814  7.950830E-6 
244 0.9327 1.029275  1.583283E-5 
245 -9.0810 1.002686  1.463700E-6 
246 -19.9739 1.000076  4.194744E-8 
247 -18.8655 1.006982  3.863634E-6 
248 -19.6299 1.018443  1.028246E-5 
249 16.3738 1.029602  1.662931E-5 
250 8.8061 1.012949  7.329498E-6 
251 18.5523 0.987657 -7.038706E-6 
252 17.8644 0.998475 -8.762370E-7 
253 -19.0566 1.003604  2.086068E-6 
254 -2.1249 1.041001  2.391115E-5 
255 17.8261 1.013674  8.033887E-6 
256 17.7497 0.992810 -4.255924E-6 
257 -19.9356 1.003841  2.290581E-6 
258 -2.1631 1.008153  4.897582E-6 
259 -13.4382 0.991289 -5.270854E-6 
260 -5.1061 0.986272 -8.368004E-6 
261 17.7497 1.016909  1.038180E-5 
262 10.2967 0.991609 -5.189754E-6 
263 17.6733 1.013977  8.707419E-6 
264 18.2466 1.033413  2.096644E-5 
265 -16.8780 1.000875  5.528545E-7 
266 18.2848 1.026926  1.714120E-5 
267 -19.4388 1.034034  2.182208E-5 
268 -3.1569 0.982571 -1.125514E-5 
269 -18.5597 1.014177  9.220990E-6 
270 18.8199 1.007478  4.898030E-6 
271 15.9533 0.979711 -1.338458E-5 
272 10.2585 1.027630  1.835684E-5 
273 -18.9801 1.014898  9.968095E-6 
274 18.6670 1.035335  2.380835E-5 
275 12.7428 1.003585  2.432744E-6 
276 -3.0804 1.022363  1.528010E-5 
277 7.8506 0.993236 -4.653811E-6 
278 16.4120 1.009106  6.309424E-6 
279 18.7817 1.012970  9.049125E-6 
280 10.2967 1.001887  1.325464E-6 
281 -17.9864 1.005917  4.185472E-6 
282 16.3355 0.998342 -1.180969E-6 
283 -1.4370 1.032968  2.364384E-5 
284 -1.9338 1.013634  9.844838E-6 
285 17.9026 1.015684  1.140248E-5 
286 -2.0485 1.014124  1.033867E-5 
287 -18.5597 1.013175  9.709811E-6 
288 5.9396 1.026848  1.992041E-5 
289 6.8187 0.996774 -2.409813E-6 
290 18.7817 1.023093  1.736650E-5 
291 -18.0246 1.020177  1.527572E-5 
292 -1.0547 1.041319  3.149245E-5 
293 17.9408 1.006142  4.712635E-6 
294 -19.6299 1.017516  1.352941E-5 
295 7.9653 1.010949  8.513180E-6 
296 -18.1775 1.002003  1.567926E-6 
297 18.0172 1.006557  5.166243E-6 
298 -19.0948 1.021735  1.723846E-5 
299 14.8450 1.015899  1.269291E-5 
300 17.0235 1.006343  5.097176E-6 
301 -0.7490 1.005738  4.641026E-6 
302 -19.2859 0.998684 -1.071639E-6 
303 -19.5917 1.003199  2.621193E-6 
304 -18.1393 1.033455  2.759227E-5 
305 19.1256 1.001907  1.582991E-6 
306 -16.9162 1.012712  1.062103E-5 
307 15.3036 1.013573  1.141343E-5 
308 -16.4576 1.015962  1.350866E-5 
309 18.3995 1.017630  1.501619E-5 
310 0.6652 1.015701  1.345824E-5 
311 -19.0566 0.994714 -4.559958E-6 
312 9.5705 1.020391  1.770263E-5 
313 12.7428 1.019467  1.700780E-5 
314 -17.2220 1.013939  1.225483E-5 
315 18.3230 1.025818  2.284281E-5 
316 -19.1712 0.992323 -6.834747E-6 
317 16.7942 1.012305  1.102486E-5 
318 18.7817 1.006036  5.442101E-6 
319 18.6288 1.011636  1.055600E-5 
320 17.9790 1.000308  2.811314E-7 
321 -19.8210 1.044723  4.107996E-5 
322 2.4998 0.993486 -6.021053E-6 
323 -19.1330 1.044082  4.099519E-5 
324 -17.6042 1.010096  9.446936E-6 
325 -19.7828 1.011605  1.092599E-5 
326 17.9408 1.019112  1.810425E-5 
327 17.6350 1.012909  1.230386E-5 
328 -4.9532 1.014048  1.347134E-5 
329 19.1256 1.018553  1.789991E-5 
330 -1.9720 1.013907  1.349898E-5 
331 16.7178 1.005646  5.513231E-6 
332 5.4427 1.013152  1.292143E-5 
333 -19.2477 1.032449  3.207339E-5 
334 -1.0165 1.011771  1.170523E-5 
335 8.6532 1.003299  3.300079E-6 
336 18.8199 1.014909  1.500366E-5 
337 18.3995 1.011928  1.207573E-5 
338 3.1113 1.017814  1.814275E-5 
339 -19.8592 1.019550  2.002939E-5 
340 0.3594 1.029302  3.019849E-5 
341 -18.2157 1.010732  1.112569E-5 
342 18.4759 1.012252  1.277633E-5 
343 -19.2477 1.002919  3.062008E-6 
344 -6.0616 1.028590  3.016654E-5 
345 7.7742 0.982738 -1.832138E-5 
346 18.3612 1.036874  3.936540E-5 
347 -19.0948 1.011505  1.235425E-5 
348 16.9089 1.019645  2.121771E-5 
349 -17.9482 1.029409  3.194901E-5 
350 -1.9720 1.048088  5.254352E-5 
351 5.3663 1.019209  2.111011E-5 
352 17.3675 1.010270  1.135234E-5 
353 16.8706 1.012090  1.344005E-5 
354 -4.4181 1.019147  2.140832E-5 
355 -19.4006 1.028469  3.201376E-5 
356 -19.4770 1.010052  1.136825E-5 
357 18.2083 1.031122  3.539873E-5 
358 -19.1330 1.015758  1.802585E-5 
359 -4.3799 1.006946  7.990539E-6 
360 -3.6155 0.983246 -1.938250E-5 
361 14.7685 1.013833  1.609364E-5 
362 18.5906 1.008794  1.028984E-5 
363 -18.9419 1.006764  7.958865E-6 
364 8.9590 1.015966  1.889144E-5 
365 18.7434 0.996385 -4.301144E-6 
366 -1.7809 1.000814  9.737392E-7 
367 -12.7502 1.006096  7.335179E-6 
368 15.1507 1.009380  1.134844E-5 
369 -18.0246 1.024570  2.989211E-5 
370 -19.9356 0.994727 -6.450533E-6 
371 -19.5534 0.980785 -2.363779E-5 
372 1.1620 1.009641  1.192522E-5 
373 -13.4382 1.006279  7.809510E-6 
374 17.6350 0.995926 -5.095066E-6 
375 -19.8974 1.022844  2.872431E-5 
376 11.4433 1.016466  2.081826E-5 
377 18.8963 0.999882 -1.497870E-7 
378 17.7115 1.006251  7.989168E-6 
379 -17.3367 1.032951  4.234466E-5 
380 -19.0948 0.989641 -1.338404E-5 
381 -17.2602 1.010490  1.362723E-5 
382 -19.3623 1.014326  1.871071E-5 
383 18.8963 1.000676  8.881244E-7 
384 6.5511 1.017414  2.298987E-5 
385 17.4822 0.998519 -1.966160E-6 
386 18.9345 1.026892  3.588356E-5 
387 18.7052 1.037159  4.984822E-5 
388 9.8381 0.993810 -8.347514E-6 
389 10.9082 1.017282  2.343102E-5 
390 -1.2076 0.998533 -1.998849E-6 
391 -19.0948 0.982945 -2.336848E-5 
392 -1.3605 1.004058  5.589817E-6 
393 -2.7364 1.036404  5.040862E-5 
394 18.8199 1.013472  1.875292E-5 
395 10.7171 1.022288  3.118775E-5 
396 0.0154 1.001308  1.839702E-6 
397 8.9972 1.017238  2.437474E-5 
398 18.3995 0.992734 -1.032735E-5 
399 -19.7445 0.984167 -2.262194E-5 
400 -19.1712 1.019623  2.818252E-5 
401 16.9089 1.019012  2.744619E-5 
402 18.8581 1.015858  2.301186E-5 
403 -19.9739 1.012622  1.841047E-5 
404 18.2466 0.984454 -2.279183E-5 
405 -19.8974 1.031942  4.707165E-5 
406 15.5329 0.999052 -1.403786E-6 
407 18.8963 0.991226 -1.306272E-5 
408 -19.4006 1.021397  3.201853E-5 
409 -17.9100 0.996909 -4.649428E-6 
410 17.9790 1.025938  3.921046E-5 
411 3.0348 1.014016  2.129596E-5 
412 -18.8272 1.017520  2.675493E-5 
413 -18.3304 0.987492 -1.919799E-5 
414 16.6413 0.997478 -3.890665E-6 
415 18.4759 1.037612  5.831078E-5 
416 17.0235 1.001764  2.747900E-6 
417 8.1946 1.016156  2.529977E-5 
418 10.7554 1.014617  2.300430E-5 
419 8.3093 1.036081  5.706701E-5 
420 0.0919 1.020231  3.215881E-5 
421 -0.5579 0.990189 -1.567298E-5 
422 17.7497 0.995375 -7.424245E-6 
423 -14.5848 0.992846 -1.154113E-5 
424 17.9026 0.986130 -2.248857E-5 
425 -9.3868 1.003952  6.439043E-6 
426 18.8963 1.016913  2.769299E-5 
427 -16.3429 0.985251 -2.426851E-5 
428 -3.3098 1.021274  3.517685E-5 
429 8.7679 1.003924  6.520424E-6 
430 -18.4450 1.026821  4.478409E-5 
431 -19.9739 1.008877  1.489479E-5 
432 -0.5197 1.004079  6.877705E-6 
433 18.1701 1.013624  2.308206E-5 
434 12.1313 1.029446  5.013153E-5 
435 -16.3047 1.010483  1.793355E-5 
436 -18.8655 1.015446  2.655127E-5 
437 -2.1631 0.999258 -1.282171E-6 
438 19.0874 1.013954  2.421843E-5 
439 18.7817 1.010549  1.839652E-5 
440 18.7817 1.030547  5.352746E-5 
441 -2.5836 1.036293  6.390075E-5 
442 17.7115 0.989278 -1.896898E-5 
443 -19.7063 1.032284  5.738541E-5 
444 -1.7045 1.008205  1.465370E-5 
445 -10.0365 1.011982  2.150165E-5 
446 18.7434 1.031370  5.655941E-5 
447 18.9728 1.001175  2.129091E-6 
448 0.0919 0.998766 -2.245763E-6 
449 -19.2095 0.997749 -4.116326E-6 
450 -9.5015 0.993801 -1.138901E-5 
451 4.5254 1.014539  2.683716E-5 
452 -19.7445 0.990834 -1.699825E-5 
453 14.7303 0.988406 -2.160147E-5 
454 17.7879 1.006055  1.133497E-5 
455 12.8575 1.028418  5.344346E-5 
456 -4.2653 1.028402  5.366250E-5 
457 18.5906 1.003340  6.339731E-6 
458 18.0937 0.990543 -1.803337E-5 
459 13.8512 1.016600  3.180120E-5 
460 9.6470 1.025315  4.872238E-5 
461 17.1764 1.022240  4.300201E-5 
462 18.3612 1.002340  4.545548E-6 
463 8.2328 1.013570  2.647996E-5 
464 -5.3354 1.002325  4.557661E-6 
465 17.3675 1.029859  5.879908E-5 
466 15.3418 1.019996  3.955757E-5 
467 -5.3737 1.007609  1.512139E-5 
468 1.0474 1.019507  3.894196E-5 
469 19.0110 1.020714  4.153843E-5 
470 0.1301 1.021517  4.334497E-5 
471 4.4490 1.002825  5.715773E-6 
472 -19.4770 1.016696  3.393775E-5 
473 17.7497 1.029498  6.023210E-5 
474 6.5511 1.030635  6.283607E-5 
475 -19.8592 1.023506  4.843022E-5 
476 -18.9801 1.020435  4.229183E-5 
477 7.5448 1.033877  7.042498E-5 
478 -1.5898 1.007467  1.559139E-5 
479 -18.2539 0.974767 -5.292380E-5 
480 18.3612 1.008835  1.861439E-5 
481 -18.5597 1.007785  1.647467E-5 
482 10.2203 1.005452  1.158789E-5 
483 -19.5917 1.006791  1.449919E-5 
484 2.6144 1.001592  3.413035E-6 
485 8.2328 1.029696  6.396240E-5 
486 17.9026 1.012349  2.671611E-5 
487 18.4377 0.996966 -6.593132E-6 
488 -6.0234 1.021154  4.616730E-5 
489 8.0799 1.014325  3.139953E-5 
490 -18.5597 1.031631  6.963916E-5 
491 15.8387 1.010667  2.358629E-5 
492 18.5523 1.027072  6.012438E-5 
493 14.0041 1.017730  3.954730E-5 
494 18.7817 1.030860  6.913403E-5 
495 -18.1011 1.001235  2.778288E-6 
496 15.6094 1.021560  4.871943E-5 
497 8.5768 1.011184  2.538199E-5 
498 -5.4501 1.009236  2.105116E-5 
499 -12.9795 1.007383  1.690055E-5 
500 -19.0566 1.039828  9.156268E-5 
501 -17.1838 1.005534  1.277593E-5 
502 -19.8592 1.013283  3.080085E-5 
503 18.8199 1.013156  3.063503E-5 
504 16.6413 1.020744  4.851142E-5 
505 -18.8272 1.001365  3.205832E-6 
506 -19.8592 1.001023  2.411920E-6 
507 9.8763 1.024456  5.792663E-5 
508 -18.4450 1.018306  4.354436E-5 
509 18.9345 1.016475  3.935431E-5 
510 13.7366 1.008037  1.928075E-5 
511 -1.0547 1.020712  4.989400E-5 
512 -19.7445 1.021636  5.234126E-5 
513 -4.8003 1.031141  7.565151E-5 
514 -2.5453 1.017904  4.367857E-5 
515 -2.5453 1.015133  3.707197E-5 
516 18.1701 1.043470  1.069386E-4 
517 -18.2157 1.013316  3.289474E-5 
518 -1.8192 1.034470  8.550896E-5 
519 11.1758 1.007613  1.896491E-5 
520 -3.0040 1.020505  5.128930E-5 
521 -2.1631 1.007947  1.996215E-5 
522 16.6795 1.023573  5.945638E-5 
523 -19.9356 1.005757  1.457903E-5 
524 14.7303 1.039389  1.001685E-4 
525 -17.7571 0.985921 -3.595097E-5 
526 16.5649 1.010339  2.651109E-5 
527 17.5968 0.978485 -5.539477E-5 
528 -18.7890 1.028209  7.292749E-5 
529 -0.6725 1.014973  3.886737E-5 
530 6.8951 1.011646  3.035550E-5 
531 0.1301 1.026439  6.919363E-5 
532 -19.0183 1.004696  1.233890E-5 
533 16.4884 1.000573  1.512366E-6 
534 15.6858 1.013780  3.650625E-5 
535 9.5323 0.984176 -4.209122E-5 
536 7.3920 0.981997 -4.808298E-5 
537 -19.4388 1.011527  3.091040E-5 
538 -1.9338 1.000205  5.506606E-7 
539 -9.0810 1.037461  1.012682E-4 
540 -19.2859 1.036296  9.851413E-5 
541 -11.5654 1.013352  3.638652E-5 
542 15.6094 1.018055  4.939987E-5 
543 -4.5328 1.018526  5.089069E-5 
544 19.0492 1.012455  3.435057E-5 
545 -0.6725 1.049656  1.375011E-4 
546 17.7497 1.028595  7.949940E-5 
547 7.1626 1.023701  6.615415E-5 
548 18.8581 1.016297  4.567048E-5 
549 -19.7063 1.003046  8.569405E-6 
550 9.0737 0.961938 -1.075116E-4 
551 -19.6681 0.992917 -2.008676E-5 
552 17.4822 1.011297  3.216177E-5 
553 -17.2984 1.000710  2.030805E-6 
554 -19.3623 0.997616 -6.841961E-6 
555 -19.5152 1.012564  3.619611E-5 
 5.508506  91.00  90.00 0.10 0.09
  0 -0.0228 0.929020 -3.996496E-6 
  1 -0.9783 0.924160 -4.273017E-6 
  2 -13.6293 1.067992  3.834396E-6 
  3 0.5123 1.029904  1.688443E-6 
  4 1.3149 1.027299  1.543591E-6 
  5 1.1620 1.015141  8.575833E-7 
  6 1.7736 1.043432  2.464752E-6 
  7 6.8187 1.032011  1.820612E-6 
  8 -0.7872 1.012154  6.929412E-7 
  9 0.1683 1.057760  3.302092E-6 
 10 -0.5197 1.027291  1.564828E-6 
 11 2.2322 0.989000 -6.327337E-7 
 12 -17.5278 1.012807  7.392117E-7 
 13 7.5066 1.031812  1.842958E-6 
 14 -0.5579 1.022623  1.315756E-6 
 15 13.2397 1.006908  4.034492E-7 
 16 12.5517 1.025342  1.486549E-6 
 17 0.8563 1.013020  7.673155E-7 
 18 -0.1375 0.998149 -1.095862E-7 
 19 -16.6487 1.011568  6.885161E-7 
 20 -12.9413 1.021671  1.296733E-6 
 21 -0.5961 1.013882  8.352622E-7 
 22 0.7034 1.022551  1.364653E-6 
 23 -2.9275 1.015294  9.310641E-7 
 24 -2.1249 1.022673  1.388742E-6 
 25 -0.2903 1.017891  1.102871E-6 
 26 -0.5197 0.999928 -4.454555E-9 
 27 1.4678 1.033220  2.075238E-6 
 28 -0.1375 1.015345  9.652702E-7 
 29 -1.0930 1.040240  2.549446E-6 
 30 0.3976 1.045163  2.882361E-6 
 31 0.3594 1.043092  2.770920E-6 
 32 -0.7872 1.010871  7.044397E-7 
 33 -1.2841 1.041145  2.687136E-6 
 34 -5.1443 1.010398  6.845432E-7 
 35 -0.4050 1.033929  2.252108E-6 
 36 2.1940 1.004031  2.698368E-7 
 37 2.1175 1.021204  1.431370E-6 
 38 1.2767 1.027130  1.847298E-6 
 39 6.8569 1.015244  1.047187E-6 
 40 -0.0992 1.024943  1.728807E-6 
 41 -7.1700 1.007791  5.448897E-7 
 42 8.9972 1.031554  2.227372E-6 
 43 12.0931 1.030165  2.149336E-6 
 44 -18.1011 1.024536  1.764899E-6 
 45 13.0104 1.014466  1.050583E-6 
 46 -16.6869 0.993121 -5.044303E-7 
 47 -0.2139 1.002595  1.921832E-7 
 48 -10.0748 1.023065  1.725134E-6 
 49 15.9151 1.028565  2.158049E-6 
 50 8.9972 1.010497  8.011555E-7 
 51 -14.9288 0.999395 -4.668435E-8 
 52 9.3030 1.020321  1.583126E-6 
 53 3.5699 1.030184  2.376163E-6 
 54 1.5060 1.036464  2.900849E-6 
 55 3.6081 1.013590  1.092644E-6 
 56 0.7416 1.032634  2.651903E-6 
 57 18.3612 1.009537  7.833486E-7 
 58 -13.7821 1.021237  1.763404E-6 
 59 10.1056 1.010604  8.901277E-7 
 60 2.9966 1.009010  7.646831E-7 
 61 16.1444 1.017168  1.473194E-6 
 62 0.4741 1.029292  2.541541E-6 
 63 5.1370 0.996159 -3.370107E-7 
 64 -3.5009 1.010952  9.717431E-7 
 65 3.5699 1.033249  2.983320E-6 
 66 -14.3172 1.030735  2.789099E-6 
 67 -16.1900 1.020713  1.901036E-6 
 68 11.2140 1.017467  1.621460E-6 
 69 -15.2727 1.042710  4.010367E-6 
 70 -11.2214 0.998951 -9.962370E-8 
 71 1.3914 1.025374  2.437806E-6 
 72 3.3788 0.998590 -1.370360E-7 
 73 2.4615 1.024583  2.416919E-6 
 74 7.6977 1.000658  6.543192E-8 
 75 -12.1769 1.035484  3.570568E-6 
 76 0.5123 1.000013  1.302502E-9 
 77 1.9647 1.003897  4.013879E-7 
 78 -15.4638 1.032922  3.430543E-6 
 79 -13.6675 0.998207 -1.890662E-7 
 80 6.0543 1.009019  9.619692E-7 
 81 5.2516 1.018793  2.028175E-6 
 82 -12.5209 1.000167  1.825992E-8 
 83 -2.2014 1.013098  1.447053E-6 
 84 5.5574 1.013062  1.460113E-6 
 85 7.0862 1.010866  1.228984E-6 
 86 -17.6806 1.010521  1.204123E-6 
 87 1.6207 1.027986  3.240735E-6 
 88 -14.3937 1.002703  3.167524E-7 
 89 -16.5722 1.005692  6.748368E-7 
 90 10.9082 1.014090  1.690134E-6 
 91 3.3788 1.002716  3.295981E-7 
 92 -16.0372 1.015912  1.954035E-6 
 93 1.6207 1.013086  1.625958E-6 
 94 8.7679 1.016431  2.065640E-6 
 95 0.6270 1.009805  1.247172E-6 
 96 5.8249 0.995765 -5.449964E-7 
 97 3.3788 1.031979  4.164054E-6 
 98 -16.7251 1.026635  3.508953E-6 
 99 6.8569 0.993324 -8.898831E-7 
100 -0.5961 1.006337  8.545848E-7 
101 -18.2539 0.994142 -7.992267E-7 
102 -5.4883 1.001440  1.988222E-7 
103 0.7416 1.000561  7.832127E-8 
104 2.6144 1.029909  4.225295E-6 
105 -7.7051 1.007678  1.097337E-6 
106 -13.7057 0.997078 -4.224745E-7 
107 -10.8392 1.006780  9.915725E-7 
108 -17.4895 1.000888  1.314449E-7 
109 11.9020 1.014989  2.243362E-6 
110 7.5448 1.031243  4.729871E-6 
111 1.5825 1.020046  3.069721E-6 
112 8.5004 1.018756  2.905287E-6 
113 1.2003 0.997324 -4.192881E-7 
114 10.9082 1.030704  4.865673E-6 
115 4.5254 1.020120  3.224757E-6 
116 17.4822 1.007245  1.174385E-6 
117 -17.1073 1.008922  1.462793E-6 
118 -12.0622 1.029105  4.826001E-6 
119 7.8124 1.019195  3.218854E-6 
120 3.9903 1.018710  3.172913E-6 
121 3.5699 1.011036  1.892633E-6 
122 -15.7314 1.031545  5.470648E-6 
123 2.0411 1.030594  5.365250E-6 
124 12.3224 1.024437  4.333410E-6 
125 7.0862 1.009241  1.656996E-6 
126 1.6589 1.002090  3.789312E-7 
127 -3.3480 1.027398  5.022460E-6 
128 -16.8016 1.011556  2.141899E-6 
129 0.2830 1.022512  4.218457E-6 
130 4.7165 0.989587 -1.972821E-6 
131 -9.3868 1.001223  2.342842E-7 
132 1.0856 1.005397  1.045087E-6 
133 8.9590 1.017876  3.499047E-6 
134 -2.4307 0.975527 -4.842635E-6 
135 2.8055 1.008321  1.664444E-6 
136 2.7291 1.032321  6.534911E-6 
137 0.5887 1.036813  7.523500E-6 
138 17.1764 1.012180  2.515966E-6 
139 0.8181 1.027388  5.718156E-6 
140 -4.4946 1.011057  2.333191E-6 
141 -17.3749 1.002811  5.994283E-7 
142 -2.3925 0.989088 -2.351918E-6 
143 4.0286 1.010840  2.361246E-6 
144 12.5135 1.027166  5.979822E-6 
145 0.1301 1.011223  2.496499E-6 
146 -13.1706 1.018068  4.061381E-6 
147 -1.8956 0.987777 -2.776173E-6 
148 17.4057 1.011162  2.561663E-6 
149 0.7416 1.014429  3.345992E-6 
150 -10.9538 1.004887  1.145099E-6 
151 -16.9544 1.023099  5.468119E-6 
152 18.2083 1.021073  5.039850E-6 
153 0.5505 0.982356 -4.263145E-6 
154 -10.9921 1.029969  7.315231E-6 
155 -4.9915 1.007799  1.923031E-6 
156 19.0874 1.001432  3.566394E-7 
157 -3.0422 1.012011  3.022394E-6 
158 -14.0115 0.991523 -2.154545E-6 
159 3.9521 1.010702  2.747488E-6 
160 5.4809 1.035579  9.226156E-6 
161 -3.5773 1.009135  2.392622E-6 
162 8.9208 1.010977  2.903733E-6 
163 -16.6105 1.006366  1.700691E-6 
164 6.8187 1.018655  5.033361E-6 
165 7.3155 1.018407  5.015525E-6 
166 -14.7759 1.018454  5.077932E-6 
167 3.2642 1.010626  2.952580E-6 
168 3.0348 1.009043  2.537529E-6 
169 -5.0679 1.025060  7.100179E-6 
170 0.6652 0.992490 -2.148644E-6 
171 8.7297 1.009802  2.831299E-6 
172 -17.3367 1.018626  5.432520E-6 
173 -3.4244 0.993280 -1.978924E-6 
174 4.7548 1.032874  9.773380E-6 
175 2.4998 1.006526  1.958634E-6 
176 -5.1826 1.017753  5.379221E-6 
177 -18.0246 1.003491  1.067886E-6 
178 -14.8905 0.990910 -2.806952E-6 
179 1.7736 1.001375  4.285458E-7 
180 -0.9401 1.032050  1.008410E-5 
181 13.5072 0.997997 -6.362566E-7 
182 7.7742 0.993247 -2.164854E-6 
183 -6.9407 0.999969 -9.959516E-9 
184 6.1689 0.993950 -1.975806E-6 
185 8.3093 1.008813  2.904758E-6 
186 8.6150 1.002676  8.901473E-7 
187 -12.6738 1.021350  7.167090E-6 
188 5.1752 1.001704  5.773860E-7 
189 -10.9538 1.029232  9.993628E-6 
190 6.8951 0.995449 -1.569874E-6 
191 -11.7565 1.021662  7.541093E-6 
192 3.3024 1.001407  4.942622E-7 
193 -17.5660 1.003480  1.233366E-6 
194 3.7992 1.019768  7.069691E-6 
195 3.0731 1.005448  1.965958E-6 
196 -17.7189 1.002900  1.055615E-6 
197 14.4627 1.022423  8.236196E-6 
198 -14.9670 1.008395  3.110860E-6 
199 17.8644 0.987664 -4.612006E-6 
200 10.0292 1.001604  6.048331E-7 
201 5.8632 0.998307 -6.440908E-7 
202 -5.5648 1.010661  4.091824E-6 
203 11.5198 1.020502  7.937613E-6 
204 4.9459 1.013558  5.295026E-6 
205 -13.1706 1.016170  6.369750E-6 
206 4.0286 1.029060  1.154633E-5 
207 12.3988 1.019294  7.732178E-6 
208 -0.6725 1.028643  1.157758E-5 
209 14.1188 1.008144  3.320279E-6 
210 10.4114 1.028816  1.184808E-5 
211 -13.5910 1.020219  8.384042E-6 
212 11.5580 1.005482  2.292638E-6 
213 -0.9401 0.980033 -8.420593E-6 
214 -4.8386 1.007306  3.106975E-6 
215 7.5831 0.999631 -1.584183E-7 
216 9.8381 1.003888  1.681435E-6 
217 -12.9795 1.002199  9.590196E-7 
218 -9.3868 1.016968  7.461047E-6 
219 -1.2458 1.017101  7.581965E-6 
220 18.9345 1.019028  8.505955E-6 
221 5.2898 0.998867 -5.107756E-7 
222 6.3218 1.021767  9.891333E-6 
223 -13.4382 1.025202  1.154629E-5 
224 -9.1575 1.036016  1.663564E-5 
225 17.5586 0.992400 -3.538983E-6 
226 -18.7508 1.022030  1.034202E-5 
227 2.2704 1.013190  6.242363E-6 
228 4.8694 1.009072  4.327858E-6 
229 -10.1512 1.003176  1.527433E-6 
230 -3.6537 1.028906  1.401297E-5 
231 7.1626 0.994209 -2.829812E-6 
232 4.9076 1.031729  1.562802E-5 
233 4.7165 1.011742  5.829702E-6 
234 4.9459 1.008910  4.458475E-6 
235 18.1701 1.031237  1.575463E-5 
236 7.5448 1.020418  1.037921E-5 
237 4.8312 1.015526  7.954268E-6 
238 -14.3937 1.006998  3.613227E-6 
239 -3.1187 1.034327  1.786318E-5 
240 -14.6230 1.001139  5.973200E-7 
241 -14.8141 0.986345 -7.216905E-6 
242 -2.6218 0.997633 -1.260553E-6 
243 11.2522 1.031933  1.713826E-5 
244 -1.5516 1.028281  1.529541E-5 
245 -4.0359 1.005995  3.266955E-6 
246 3.6846 1.010809  5.935621E-6 
247 -9.6161 1.040971  2.267073E-5 
248 1.8882 1.022853  1.274117E-5 
249 -16.3811 1.020758  1.166134E-5 
250 3.9139 1.001331  7.534728E-7 
251 -19.8210 0.992006 -4.559006E-6 
252 -17.0309 1.016898  9.709020E-6 
253 5.7103 1.006708  3.882967E-6 
254 3.6846 1.046322  2.701459E-5 
255 -4.6092 1.018956  1.113739E-5 
256 4.4490 1.005096  3.016526E-6 
257 4.2579 1.020687  1.233528E-5 
258 -19.3623 1.008388  5.038398E-6 
259 8.0035 0.990929 -5.489076E-6 
260 1.9647 1.027896  1.700361E-5 
261 11.5198 1.009709  5.961284E-6 
262 -12.6355 1.027120  1.677314E-5 
263 9.3794 1.010903  6.792579E-6 
264 -17.2602 1.027323  1.714520E-5 
265 -0.3668 1.006987  4.416108E-6 
266 12.0549 1.020277  1.290843E-5 
267 2.6144 0.994058 -3.809752E-6 
268 -14.5466 0.978345 -1.398451E-5 
269 7.1244 1.021944  1.427252E-5 
270 -1.7045 1.024613  1.612247E-5 
271 -6.2909 1.006406  4.225746E-6 
272 -1.3987 1.028208  1.874094E-5 
273 5.0223 1.006076  4.065404E-6 
274 10.1821 1.029402  1.981050E-5 
275 -5.1443 0.986973 -8.839363E-6 
276 0.5887 1.013006  8.887196E-6 
277 -1.0547 1.036943  2.541932E-5 
278 11.6344 1.019019  1.317745E-5 
279 4.1432 1.004535  3.163799E-6 
280 -18.1011 0.990956 -6.353845E-6 
281 5.2516 0.996446 -2.514396E-6 
282 4.4108 1.035916  2.558151E-5 
283 9.6088 1.002713  1.945936E-6 
284 14.2334 1.015576  1.124728E-5 
285 7.7360 1.016923  1.230375E-5 
286 7.4684 0.996603 -2.486470E-6 
287 -17.1073 0.998280 -1.267389E-6 
288 -14.6230 0.985641 -1.065384E-5 
289 2.7291 1.008280  6.185343E-6 
290 8.8826 0.994261 -4.316003E-6 
291 -9.6543 1.000377  2.851729E-7 
292 -19.2477 1.021419  1.632485E-5 
293 8.4621 0.986458 -1.039081E-5 
294 13.3926 1.025676  1.983216E-5 
295 -19.9739 1.014660  1.139907E-5 
296 12.2460 1.004398  3.442755E-6 
297 1.3914 0.996984 -2.376145E-6 
298 -14.9288 0.999485 -4.084746E-7 
299 -16.8016 1.017697  1.412784E-5 
300 -19.7063 1.040272  3.236192E-5 
301 -5.9852 1.014901  1.205238E-5 
302 -15.9607 1.015095  1.228942E-5 
303 -11.5654 1.000782  6.404762E-7 
304 7.0862 1.029351  2.420784E-5 
305 2.5380 1.024333  2.019942E-5 
306 -18.1393 1.004171  3.484916E-6 
307 12.9339 0.988874 -9.355537E-6 
308 -1.5134 1.008421  7.126720E-6 
309 -17.3749 1.002621  2.232341E-6 
310 4.1815 0.986525 -1.155029E-5 
311 -8.5460 0.983312 -1.439583E-5 
312 9.3412 0.994497 -4.777747E-6 
313 8.6532 1.025875  2.260643E-5 
314 -4.9532 1.016398  1.441705E-5 
315 1.1620 1.019008  1.681751E-5 
316 -0.4050 1.003221  2.867657E-6 
317 -6.5585 1.010576  9.475277E-6 
318 18.7434 1.011133  1.003726E-5 
319 -18.5979 1.015279  1.386115E-5 
320 -7.3993 1.028679  2.617979E-5 
321 1.4296 0.992269 -7.101110E-6 
322 -4.6475 1.006435  5.947238E-6 
323 -2.9658 0.997860 -1.990244E-6 
324 11.2522 1.005063  4.738034E-6 
325 11.4433 1.020458  1.926115E-5 
326 6.5129 1.007078  6.705152E-6 
327 1.5060 1.030788  2.934425E-5 
328 -19.7445 1.017418  1.670271E-5 
329 6.2836 0.997240 -2.662795E-6 
330 -12.7120 1.029059  2.820614E-5 
331 3.0731 1.011807  1.152976E-5 
332 14.6538 1.029501  2.898391E-5 
333 1.7353 1.017541  1.733806E-5 
334 11.2140 0.995562 -4.412531E-6 
335 -0.4050 1.029017  2.902702E-5 
336 12.9721 0.994364 -5.672101E-6 
337 -17.0309 0.996931 -3.106978E-6 
338 0.3976 0.970901 -2.963525E-5 
339 6.2836 1.022701  2.325661E-5 
340 5.1370 1.003760  3.875089E-6 
341 9.1119 1.038020  3.941558E-5 
342 8.0417 1.008903  9.284388E-6 
343 13.5072 1.015445  1.620135E-5 
344 4.3343 0.987579 -1.310604E-5 
345 -7.6669 1.003724  3.952125E-6 
346 -7.9344 1.032493  3.468881E-5 
347 8.3093 1.009283  9.968556E-6 
348 -4.2653 1.019334  2.088182E-5 
349 -1.7809 1.004621  5.020184E-6 
350 8.5768 1.036299  3.966277E-5 
351 -19.6681 1.022364  2.457741E-5 
352 -5.1443 1.033892  3.746217E-5 
353 9.8381 1.011547  1.283691E-5 
354 18.2466 1.018226  2.037862E-5 
355 5.5574 0.994189 -6.534104E-6 
356 4.2961 1.009880  1.117352E-5 
357 11.3669 1.006410  7.290631E-6 
358 9.8763 1.015502  1.773271E-5 
359 -15.3492 1.036831  4.237001E-5 
360 6.2454 0.997783 -2.564432E-6 
361 5.2134 1.037009  4.305848E-5 
362 6.0543 1.028504  3.335008E-5 
363 3.1877 1.000486  5.724151E-7 
364 -17.2602 0.982241 -2.101300E-5 
365 8.3475 1.001155  1.374298E-6 
366 12.4753 1.013548  1.621002E-5 
367 2.5762 1.031227  3.757275E-5 
368 4.0286 1.011583  1.401420E-5 
369 8.5004 1.026808  3.261542E-5 
370 9.9145 1.010225  1.250929E-5 
371 10.4496 1.005437  6.688902E-6 
372 -18.3304 0.992861 -8.830964E-6 
373 -15.5021 1.018148  2.257190E-5 
374 -9.1575 1.001349  1.686767E-6 
375 1.3914 1.041520  5.220901E-5 
376 2.7291 1.002202  2.784489E-6 
377 7.0480 0.997331 -3.393226E-6 
378 18.6670 1.036695  4.690133E-5 
379 13.3544 1.007630  9.805694E-6 
380 0.6652 0.994592 -6.987375E-6 
381 -5.3737 1.031272  4.062423E-5 
382 1.8882 1.010912  1.425226E-5 
383 1.5825 1.003040  3.991947E-6 
384 12.0166 1.012341  1.629182E-5 
385 1.9647 1.017066  2.265119E-5 
386 9.4559 1.000435  5.807690E-7 
387 -1.6663 1.015167  2.034660E-5 
388 -15.6550 0.993830 -8.320749E-6 
389 -18.1775 1.047428  6.430245E-5 
390 5.6720 0.980625 -2.640838E-5 
391 -3.0804 0.996088 -5.360126E-6 
392 9.6852 1.006628  9.129238E-6 
393 15.7240 1.011725  1.623548E-5 
394 -16.2665 1.038742  5.392968E-5 
395 11.2140 1.022431  3.138809E-5 
396 0.7798 1.021718  3.054944E-5 
397 2.0029 1.036861  5.212080E-5 
398 -16.7251 1.027688  3.935570E-5 
399 -9.4250 1.005707  8.154414E-6 
400 1.2003 1.028554  4.100932E-5 
401 17.4822 1.006073  8.767325E-6 
402 4.4108 1.010051  1.458518E-5 
403 4.9459 1.010703  1.561138E-5 
404 2.4615 1.011810  1.731436E-5 
405 -7.2847 1.012110  1.784603E-5 
406 10.4114 1.032417  4.801672E-5 
407 9.8381 1.040287  5.997953E-5 
408 9.0354 1.021105  3.158171E-5 
409 -15.8461 1.001258  1.892043E-6 
410 1.7353 1.022591  3.415153E-5 
411 -15.8843 1.007068  1.073939E-5 
412 -15.3874 1.016994  2.595087E-5 
413 1.0856 1.000067  1.023499E-7 
414 9.1883 1.024208  3.734198E-5 
415 7.4684 1.032538  5.044535E-5 
416 -1.6281 0.981326 -2.909627E-5 
417 -7.7815 1.014516  2.273097E-5 
418 17.5204 1.002205  3.469522E-6 
419 7.1244 1.026964  4.264713E-5 
420 17.3675 1.001465  2.329337E-6 
421 -7.7051 1.023595  3.769236E-5 
422 6.3218 1.001329  2.132881E-6 
423 1.4678 0.998378 -2.617544E-6 
424 -19.6681 0.986686 -2.158682E-5 
425 19.0492 1.033695  5.490101E-5 
426 10.2585 1.018651  3.053910E-5 
427 2.7291 0.990892 -1.498575E-5 
428 -17.5278 1.036550  6.043549E-5 
429 8.7679 1.004597  7.638103E-6 
430 -18.7126 1.030275  5.055135E-5 
431 6.8569 1.023698  3.976150E-5 
432 -12.4827 1.031934  5.384241E-5 
433 8.3093 1.004572  7.746875E-6 
434 4.3343 1.032583  5.547069E-5 
435 -14.4701 0.993772 -1.065385E-5 
436 -18.1011 1.024238  4.166485E-5 
437 -14.8523 0.998064 -3.343629E-6 
438 7.8124 1.017567  3.048942E-5 
439 8.6532 1.005122  8.931715E-6 
440 -19.3241 1.011896  2.084467E-5 
441 -18.2157 1.016184  2.849536E-5 
442 -9.9219 1.015315  2.709266E-5 
443 0.8945 0.996772 -5.737299E-6 
444 9.2648 1.021809  3.895085E-5 
445 -7.2082 0.990584 -1.689729E-5 
446 17.4822 1.035138  6.335343E-5 
447 5.8249 1.025352  4.592540E-5 
448 -10.7627 1.013264  2.414169E-5 
449 -18.9037 1.029899  5.467406E-5 
450 10.4114 1.001540  2.830061E-6 
451 10.8318 1.011549  2.131768E-5 
452 -14.5083 1.013972  2.591123E-5 
453 8.6150 1.022797  4.247469E-5 
454 -14.7759 0.988156 -2.217085E-5 
455 -11.7182 1.029861  5.615808E-5 
456 -5.3737 1.003504  6.620851E-6 
457 19.1256 1.012137  2.303831E-5 
458 -0.5579 1.004204  8.016940E-6 
459 -18.7508 1.005197  9.956440E-6 
460 -0.2521 1.014700  2.829227E-5 
461 0.8945 1.010411  2.012960E-5 
462 -16.8780 1.024716  4.800879E-5 
463 -11.6036 1.024675  4.814825E-5 
464 5.7103 1.021922  4.297232E-5 
465 -8.0873 1.032087  6.318740E-5 
466 -5.9470 1.033094  6.546810E-5 
467 -6.4056 1.010610  2.108555E-5 
468 6.5511 0.998057 -3.877859E-6 
469 -15.9225 1.000338  6.778673E-7 
470 -2.6600 1.028082  5.657103E-5 
471 5.5574 1.024354  4.928277E-5 
472 7.1244 1.019148  3.892211E-5 
473 -8.1255 1.007739  1.580200E-5 
474 7.0098 1.023635  4.847845E-5 
475 5.9778 1.011722  2.415154E-5 
476 3.3788 1.025353  5.247015E-5 
477 2.9584 0.990915 -1.888638E-5 
478 -16.9544 0.986236 -2.874139E-5 
479 5.2898 1.013835  2.901824E-5 
480 -2.8129 0.997264 -5.764667E-6 
481 -10.3805 0.987501 -2.644927E-5 
482 -4.5710 0.995882 -8.752308E-6 
483 14.6538 0.982558 -3.723758E-5 
484 2.8055 1.022381  4.799431E-5 
485 0.6270 0.996752 -6.995820E-6 
486 2.6909 1.013648  2.952520E-5 
487 2.1558 1.010287  2.235183E-5 
488 3.3406 1.016565  3.615231E-5 
489 -14.0115 1.007327  1.606113E-5 
490 -10.4570 1.015903  3.501222E-5 
491 4.9076 1.019224  4.250939E-5 
492 5.9778 0.998354 -3.656526E-6 
493 1.8882 1.021403  4.773933E-5 
494 2.4233 1.008101  1.814883E-5 
495 5.0605 1.025506  5.738657E-5 
496 -7.7815 0.985949 -3.175209E-5 
497 -0.5197 1.029728  6.746624E-5 
498 10.0674 1.029600  6.746693E-5 
499 -6.2909 1.012694  2.905791E-5 
500 8.2710 1.021668  4.981341E-5 
501 5.7485 1.006865  1.585037E-5 
502 -12.6355 0.992505 -1.737811E-5 
503 1.6971 1.022970  5.348994E-5 
504 0.8563 1.045259  1.058434E-4 
505 2.3087 0.997230 -6.504427E-6 
506 -18.7126 1.022988  5.421820E-5 
507 -16.8780 1.025808  6.112912E-5 
508 7.8124 1.043589  1.036847E-4 
509 -15.5021 1.008764  2.093451E-5 
510 -15.0052 0.997250 -6.596522E-6 
511 2.1558 1.015637  3.766837E-5 
512 15.4947 0.969837 -7.296875E-5 
513 3.7992 1.002549  6.191875E-6 
514 15.4947 1.007947  1.938710E-5 
515 9.6852 1.006061  1.484773E-5 
516 -7.2082 1.000901  2.217253E-6 
517 15.4565 1.004529  1.118842E-5 
518 9.4941 0.992206 -1.933516E-5 
519 18.6288 1.012629  3.145979E-5 
520 7.0480 1.019987  4.999587E-5 
521 -2.9275 1.015344  3.853964E-5 
522 2.1940 1.015917  4.014444E-5 
523 -2.6600 1.003550  8.990087E-6 
524 13.7748 1.018876  4.800358E-5 
525 -12.9413 1.023492  5.998913E-5 
526 -0.5961 1.007216  1.850164E-5 
527 14.8832 0.994973 -1.294408E-5 
528 -0.3286 1.046647  1.205935E-4 
529 18.9345 1.021152  5.490614E-5 
530 10.2967 1.048139  1.254719E-4 
531 12.8193 0.994132 -1.535775E-5 
532 5.2898 0.989176 -2.844368E-5 
533 2.7291 1.021392  5.644207E-5 
534 -3.7684 1.015886  4.208675E-5 
535 -4.8768 0.994580 -1.441745E-5 
536 -9.4250 0.997164 -7.574190E-6 
537 2.6526 0.999055 -2.534783E-6 
538 5.2516 0.989640 -2.789285E-5 
539 2.9202 1.045205  1.222032E-4 
540 -13.4764 1.015226  4.132739E-5 
541 10.7554 1.004092  1.115222E-5 
542 4.0286 0.985395 -3.995925E-5 
543 -19.2095 1.011482  3.154110E-5 
544 -19.6299 1.037389  1.031201E-4 
545 10.4114 1.020110  5.568635E-5 
546 0.8563 1.027245  7.574619E-5 
547 6.6276 1.019661  5.487900E-5 
548 -15.1963 1.007460  2.090484E-5 
549 -0.7490 1.008592  2.417465E-5 
550 1.0092 0.999020 -2.767883E-6 
551 1.8118 1.010078  2.858032E-5 
552 9.4177 1.032869  9.357898E-5 
553 -1.9338 0.992582 -2.120267E-5 
554 2.2704 1.010130  2.906819E-5 
555 -11.9093 0.993854 -1.770565E-5 
 5.743444  91.00  90.00 -0.00 0.09
  0 -0.0992 0.989682 -5.809272E-7 
  1 -1.2458 0.992136 -4.430958E-7 
  2 -15.2345 1.069149  3.899636E-6 
  3 1.2003 1.020319  1.147263E-6 
  4 0.8563 1.032918  1.861308E-6 
  5 0.3594 1.025538  1.446455E-6 
  6 -2.6600 1.027369  1.553175E-6 
  7 0.6652 1.031972  1.818421E-6 
  8 -1.2841 1.018990  1.082704E-6 
  9 -0.9401 1.040044  2.289296E-6 
 10 1.6971 1.010067  5.772393E-7 
 11 1.1620 1.037823  2.175611E-6 
 12 -17.2984 1.035206  2.032108E-6 
 13 -0.2521 1.021528  1.247152E-6 
 14 -16.7633 1.006587  3.831284E-7 
 15 1.1620 1.002605  1.521249E-7 
 16 18.7817 1.026634  1.562375E-6 
 17 0.2065 1.041901  2.469347E-6 
 18 2.4615 1.006210  3.677686E-7 
 19 -1.9720 1.036193  2.154218E-6 
 20 -0.9019 1.016057  9.608193E-7 
 21 0.8563 1.044199  2.659380E-6 
 22 -1.7045 1.029584  1.790259E-6 
 23 0.1683 1.038937  2.370344E-6 
 24 -3.2715 1.046773  2.864950E-6 
 25 -1.0547 1.014146  8.719741E-7 
 26 -1.4370 0.995914 -2.535337E-7 
 27 -18.2922 1.032367  2.021952E-6 
 28 -1.0930 0.997988 -1.265777E-7 
 29 0.8563 1.042806  2.712044E-6 
 30 -1.7809 1.047006  3.000006E-6 
 31 -0.4432 1.004202  2.702138E-7 
 32 -0.2139 1.039818  2.580152E-6 
 33 0.8945 1.024816  1.620715E-6 
 34 -1.4370 1.014859  9.782498E-7 
 35 -18.4450 1.018886  1.253598E-6 
 36 0.2830 1.006820  4.564799E-7 
 37 -2.1631 1.022971  1.550673E-6 
 38 -3.0040 1.026935  1.834043E-6 
 39 -16.8398 1.006721  4.616995E-7 
 40 -3.5391 1.012297  8.523354E-7 
 41 -15.2727 1.021224  1.484468E-6 
 42 -2.2014 0.991290 -6.148102E-7 
 43 -0.8254 1.018912  1.347484E-6 
 44 -4.0359 0.994782 -3.753440E-7 
 45 -0.7108 1.023436  1.701999E-6 
 46 -16.8016 1.011496  8.430089E-7 
 47 -0.9401 1.006140  4.547201E-7 
 48 -5.6412 1.038322  2.866287E-6 
 49 -16.6105 1.011263  8.509400E-7 
 50 -15.2727 1.038455  2.934890E-6 
 51 -18.4450 1.000201  1.546318E-8 
 52 -16.1900 1.021207  1.652164E-6 
 53 -16.3811 1.011758  9.255880E-7 
 54 -1.7045 1.022063  1.755169E-6 
 55 -14.1644 1.005212  4.190572E-7 
 56 -15.8078 0.998640 -1.105032E-7 
 57 -0.5197 1.012434  1.021313E-6 
 58 -6.4820 1.027280  2.265177E-6 
 59 0.8181 1.007996  6.712277E-7 
 60 -18.6361 1.002517  2.136423E-7 
 61 -15.6167 1.027200  2.334056E-6 
 62 -4.4181 1.020095  1.743576E-6 
 63 -3.2715 1.000553  4.854398E-8 
 64 -5.2972 1.011536  1.023527E-6 
 65 14.8832 1.027912  2.504510E-6 
 66 -0.2139 1.035147  3.189448E-6 
 67 -16.7251 1.013571  1.245542E-6 
 68 12.7428 1.022806  2.117150E-6 
 69 -15.9989 1.025003  2.347728E-6 
 70 -15.8461 1.022041  2.093450E-6 
 71 -1.0930 1.005018  4.821273E-7 
 72 -2.0103 1.017908  1.740446E-6 
 73 -16.8398 0.992892 -6.988632E-7 
 74 0.5887 1.018566  1.846602E-6 
 75 3.0731 0.994625 -5.408952E-7 
 76 -7.7815 1.014200  1.445579E-6 
 77 3.0348 1.009739  1.003067E-6 
 78 -5.2590 1.019704  2.053177E-6 
 79 -14.7377 0.995876 -4.347952E-7 
 80 0.0154 1.013777  1.469530E-6 
 81 -15.9607 1.011631  1.255253E-6 
 82 -16.4958 1.008898  9.716047E-7 
 83 -7.8198 1.006125  6.767083E-7 
 84 -19.1712 1.020411  2.281708E-6 
 85 -16.7633 1.027019  3.056062E-6 
 86 4.1050 1.030009  3.434356E-6 
 87 -14.7377 1.020084  2.325676E-6 
 88 -13.2088 1.008309  9.735220E-7 
 89 -17.4131 1.011480  1.361002E-6 
 90 -14.8523 1.002278  2.732727E-7 
 91 -16.4958 1.016717  2.028960E-6 
 92 13.1633 1.003020  3.708064E-7 
 93 13.0868 1.026064  3.238462E-6 
 94 -4.3035 1.007929  9.967737E-7 
 95 17.3293 1.021408  2.723032E-6 
 96 -2.8129 0.992797 -9.270098E-7 
 97 -16.0372 1.022363  2.911858E-6 
 98 -2.5071 1.035841  4.721739E-6 
 99 -2.8129 1.038275  5.101584E-6 
100 -5.7559 1.012579  1.696340E-6 
101 -18.0628 1.007830  1.068283E-6 
102 -14.5083 1.005169  7.134709E-7 
103 12.1695 0.990355 -1.346803E-6 
104 13.8130 1.036559  5.164659E-6 
105 -2.0485 1.005500  7.860240E-7 
106 -0.0610 1.002707  3.914339E-7 
107 -16.5722 1.015040  2.199683E-6 
108 -16.5722 1.021337  3.156853E-6 
109 -3.4626 1.013496  2.019844E-6 
110 -16.0372 1.022922  3.470111E-6 
111 -18.2922 1.021017  3.218481E-6 
112 -17.7189 1.016788  2.600446E-6 
113 1.6971 1.021270  3.332522E-6 
114 -16.0372 1.031337  4.965850E-6 
115 -16.5340 1.017212  2.758730E-6 
116 -8.1255 1.021948  3.557844E-6 
117 -16.6487 1.008581  1.406835E-6 
118 -2.8511 1.004952  8.210247E-7 
119 -16.7633 0.999985 -2.511729E-9 
120 -3.8448 1.011443  1.940492E-6 
121 -6.8643 0.987118 -2.209174E-6 
122 -15.1199 1.018907  3.278834E-6 
123 -16.5340 1.015424  2.704889E-6 
124 -16.0372 1.011072  1.963399E-6 
125 -16.4576 1.020323  3.644053E-6 
126 3.2642 0.994240 -1.044242E-6 
127 -14.9670 1.010849  1.988806E-6 
128 -15.5785 1.008487  1.572948E-6 
129 -17.7953 1.006324  1.185148E-6 
130 -18.5215 1.014185  2.687485E-6 
131 -1.4370 1.023351  4.472445E-6 
132 -15.1963 0.992247 -1.501127E-6 
133 -8.2784 0.990997 -1.762336E-6 
134 -17.7571 1.000659  1.304563E-7 
135 -18.9801 1.025927  5.186093E-6 
136 0.6270 1.003158  6.384189E-7 
137 -17.6806 1.030626  6.259072E-6 
138 -16.1136 1.007537  1.556836E-6 
139 -15.8078 1.019609  4.094118E-6 
140 -3.9213 1.017587  3.711130E-6 
141 13.3926 0.984734 -3.255729E-6 
142 1.7736 1.018237  3.930791E-6 
143 -5.6794 1.003658  7.967859E-7 
144 2.1940 1.012988  2.858924E-6 
145 -16.0754 1.028327  6.301083E-6 
146 -7.5522 0.997034 -6.666481E-7 
147 -0.1757 0.989088 -2.478571E-6 
148 -17.6042 1.025973  5.960825E-6 
149 -5.5648 1.018389  4.264362E-6 
150 -0.8636 1.017215  4.033410E-6 
151 -6.5585 1.010359  2.452287E-6 
152 -17.6424 1.008367  2.001062E-6 
153 14.1188 1.036284  8.766952E-6 
154 16.7942 1.027872  6.803334E-6 
155 -17.5660 1.012248  3.020288E-6 
156 -18.8655 1.002030  5.056523E-7 
157 -9.3104 0.996446 -8.944011E-7 
158 16.3355 1.021636  5.499391E-6 
159 -5.8323 1.011310  2.903611E-6 
160 0.9709 0.994237 -1.494443E-6 
161 1.2003 1.008950  2.344053E-6 
162 -2.4307 1.018126  4.794904E-6 
163 -17.6806 1.017116  4.572792E-6 
164 -16.9927 1.020084  5.418992E-6 
165 -16.6869 1.010269  2.798245E-6 
166 -16.5340 1.040255  1.107687E-5 
167 -13.8204 1.053703  1.492239E-5 
168 -6.7114 1.019172  5.379619E-6 
169 0.8563 1.026939  7.632619E-6 
170 12.4753 1.008810  2.520482E-6 
171 -16.9544 1.015399  4.448219E-6 
172 13.9659 1.026968  7.865403E-6 
173 -6.1381 1.000749  2.206802E-7 
174 -13.3999 1.023118  6.872867E-6 
175 -17.2984 1.018634  5.592685E-6 
176 -15.5403 1.012491  3.784941E-6 
177 -10.6863 1.024481  7.488417E-6 
178 0.8181 1.007894  2.437599E-6 
179 -3.4244 1.007202  2.244757E-6 
180 -16.1900 1.020084  6.319072E-6 
181 -6.5203 1.008610  2.734389E-6 
182 -5.9470 1.006723  2.155123E-6 
183 2.4615 1.010286  3.327936E-6 
184 -15.7314 0.992893 -2.320990E-6 
185 -14.7377 1.015855  5.225490E-6 
186 -16.2665 1.011449  3.808248E-6 
187 -17.4131 0.984313 -5.266079E-6 
188 -17.6806 0.997521 -8.396948E-7 
189 1.0092 1.029505  1.008671E-5 
190 -4.4946 1.011607  4.004090E-6 
191 -2.3160 1.013322  4.637668E-6 
192 -15.7314 0.990605 -3.300208E-6 
193 -17.3749 1.028027  9.933890E-6 
194 -1.9720 1.011956  4.276036E-6 
195 -16.1136 0.993979 -2.172683E-6 
196 -0.5961 0.985970 -5.107686E-6 
197 -17.0691 1.001647  6.051078E-7 
198 -5.0679 0.998962 -3.848009E-7 
199 -17.6424 1.017609  6.583302E-6 
200 -3.3480 1.017726  6.685425E-6 
201 -2.6600 1.008719  3.317257E-6 
202 -14.0115 1.011493  4.411218E-6 
203 -1.5134 1.052225  2.021963E-5 
204 -3.8448 0.993007 -2.731137E-6 
205 -16.4194 1.017770  7.000213E-6 
206 -16.7251 1.010257  4.075358E-6 
207 18.8963 1.021582  8.649229E-6 
208 14.1952 1.005928  2.396057E-6 
209 -16.0754 1.023519  9.588005E-6 
210 -15.7314 1.005921  2.434557E-6 
211 -16.9927 0.982982 -7.056519E-6 
212 -17.4131 1.022712  9.497665E-6 
213 -5.9852 0.986050 -5.883193E-6 
214 -15.2345 1.014287  6.075865E-6 
215 0.6270 1.018283  7.840869E-6 
216 -7.5904 1.007719  3.338038E-6 
217 -5.4501 1.002142  9.341132E-7 
218 -5.0679 0.994914 -2.236497E-6 
219 -15.9225 1.001299  5.757107E-7 
220 12.5899 0.991752 -3.686880E-6 
221 -8.1637 0.996019 -1.794224E-6 
222 -16.4958 1.020539  9.333231E-6 
223 1.0856 1.023878  1.093961E-5 
224 16.9089 1.027362  1.263839E-5 
225 0.6270 1.012149  5.657156E-6 
226 -4.4946 1.000855  4.015323E-7 
227 -16.1136 0.981936 -8.549042E-6 
228 -4.7239 1.000136  6.467618E-8 
229 -16.9544 0.996686 -1.593704E-6 
230 -17.2984 1.009015  4.370279E-6 
231 -2.8129 1.014637  7.152685E-6 
232 -16.4576 1.013896  6.844498E-6 
233 -14.4701 0.999324 -3.356760E-7 
234 14.2334 1.007651  3.828643E-6 
235 -17.1838 1.046014  2.320773E-5 
236 -2.4689 1.003413  1.734952E-6 
237 1.3531 1.004930  2.525614E-6 
238 15.8387 0.985367 -7.555765E-6 
239 -3.2333 1.029020  1.510117E-5 
240 -15.1199 1.001402  7.351903E-7 
241 -17.3749 1.009062  4.789501E-6 
242 -16.6869 1.008405  4.476290E-6 
243 -2.5836 1.011185  6.003090E-6 
244 -1.8574 1.026906  1.455131E-5 
245 -5.1443 1.018788  1.023893E-5 
246 2.5380 1.017333  9.518276E-6 
247 -2.3160 1.002709  1.498739E-6 
248 -16.4576 1.030446  1.697456E-5 
249 -15.0434 1.002233  1.254173E-6 
250 -1.0930 1.009815  5.555666E-6 
251 -17.9864 1.007970  4.544875E-6 
252 16.0298 1.012985  7.460662E-6 
253 -15.0816 1.017213  9.964191E-6 
254 -0.6343 1.013618  7.941737E-6 
255 -15.9607 0.998964 -6.083944E-7 
256 2.2322 1.029651  1.755018E-5 
257 -14.3172 1.017154  1.022832E-5 
258 -6.1763 1.026074  1.566181E-5 
259 14.5010 0.999574 -2.576830E-7 
260 1.6971 1.020282  1.236287E-5 
261 -16.0754 1.007404  4.546333E-6 
262 -16.5722 1.024013  1.485134E-5 
263 -6.5967 1.007227  4.502459E-6 
264 -15.5403 1.039375  2.470750E-5 
265 -5.6412 1.002132  1.347469E-6 
266 -16.2283 1.025666  1.633896E-5 
267 -16.4194 1.020796  1.333384E-5 
268 6.7040 1.009744  6.292632E-6 
269 -1.2458 1.027802  1.808212E-5 
270 -3.8831 1.012639  8.278876E-6 
271 -15.2727 1.008452  5.575896E-6 
272 -0.8636 1.035330  2.347224E-5 
273 9.0737 1.008944  5.984115E-6 
274 -17.5278 1.027623  1.861195E-5 
275 -15.8461 1.020643  1.400711E-5 
276 -4.4564 1.002774  1.895453E-6 
277 0.7798 1.002597  1.787171E-6 
278 -0.3668 1.035078  2.430437E-5 
279 -17.3749 1.012769  8.908566E-6 
280 -1.9720 0.999313 -4.828379E-7 
281 11.4051 1.018937  1.339609E-5 
282 -15.7314 1.017659  1.257806E-5 
283 -16.8398 1.015108  1.083517E-5 
284 -17.1073 1.021333  1.540457E-5 
285 -4.7621 1.000483  3.513911E-7 
286 -0.6343 1.014611  1.069471E-5 
287 -7.2082 1.043312  3.191980E-5 
288 -13.7057 1.005818  4.316492E-6 
289 -15.3110 1.016187  1.209169E-5 
290 14.5010 1.020952  1.575636E-5 
291 -7.0554 1.001448  1.096311E-6 
292 -18.4450 1.005803  4.422749E-6 
293 -18.4833 1.013148  1.008800E-5 
294 12.7810 1.011361  8.775658E-6 
295 -8.4695 1.000187  1.456480E-7 
296 -1.5516 1.047689  3.732678E-5 
297 0.3976 1.031752  2.501707E-5 
298 -0.4432 1.026001  2.062127E-5 
299 -19.2477 1.009653  7.706614E-6 
300 1.0474 1.036523  2.934915E-5 
301 -18.2157 1.016882  1.365448E-5 
302 1.7353 1.017829  1.451524E-5 
303 -6.6732 1.007580  6.211579E-6 
304 -3.4244 1.013789  1.137300E-5 
305 -16.8016 1.018780  1.558978E-5 
306 -3.1187 1.013879  1.159603E-5 
307 -16.0372 1.001366  1.148633E-6 
308 -2.5071 1.003603  3.049225E-6 
309 -4.7621 1.005173  4.406047E-6 
310 8.5386 1.014176  1.215109E-5 
311 -0.8254 0.974078 -2.236201E-5 
312 -17.7189 0.980751 -1.671070E-5 
313 -2.4689 1.001858  1.623277E-6 
314 -15.1199 1.019182  1.686469E-5 
315 3.1877 1.011917  1.054391E-5 
316 -1.3605 1.009458  8.420954E-6 
317 3.3788 1.011405  1.021815E-5 
318 0.3212 1.007241  6.528561E-6 
319 14.1188 1.008522  7.731191E-6 
320 -17.7571 1.012026  1.097846E-5 
321 -17.1455 1.010486  9.631488E-6 
322 -2.5453 1.016673  1.540973E-5 
323 -4.7239 0.996829 -2.948962E-6 
324 -15.7314 1.001613  1.509562E-6 
325 12.1695 1.018338  1.726493E-5 
326 0.0154 1.004955  4.693544E-6 
327 -6.3292 1.015179  1.446741E-5 
328 -18.2922 1.041747  4.003254E-5 
329 -16.3811 1.032372  3.123202E-5 
330 -6.2145 1.026705  2.592140E-5 
331 -15.1199 1.029868  2.916755E-5 
332 -15.6550 1.047745  4.690867E-5 
333 -17.0691 1.035430  3.501979E-5 
334 -17.6806 1.006506  6.468904E-6 
335 -0.3286 1.024604  2.461316E-5 
336 -5.9087 1.022495  2.263776E-5 
337 -18.2539 1.019205  1.944264E-5 
338 12.3224 1.005776  5.882058E-6 
339 -16.3811 1.005090  5.214888E-6 
340 15.5329 1.027710  2.855753E-5 
341 -16.8016 1.011218  1.162970E-5 
342 -7.3611 1.002166  2.259095E-6 
343 -16.7251 1.033249  3.487771E-5 
344 -17.9100 1.009842  1.038533E-5 
345 -14.9670 1.003024  3.209691E-6 
346 14.0805 0.987253 -1.360884E-5 
347 12.6282 1.026931  2.891909E-5 
348 -6.9025 1.018207  1.966490E-5 
349 0.6652 1.011166  1.213002E-5 
350 -16.9162 1.013522  1.477517E-5 
351 3.1877 1.003184  3.498677E-6 
352 14.0423 1.031281  3.457565E-5 
353 -2.2778 1.014527  1.614983E-5 
354 -19.5534 1.001680  1.878073E-6 
355 -16.1518 1.010294  1.157623E-5 
356 -3.9213 1.017035  1.926618E-5 
357 14.6921 1.009548  1.085962E-5 
358 -16.9927 1.017336  1.983009E-5 
359 -1.3223 1.015277  1.757448E-5 
360 15.8005 0.979157 -2.411342E-5 
361 -1.4752 1.024213  2.817127E-5 
362 2.0029 1.022158  2.592581E-5 
363 -15.9225 1.011535  1.357217E-5 
364 13.0868 1.016139  1.909661E-5 
365 -3.0804 0.997550 -2.915622E-6 
366 -14.7759 1.005165  6.180541E-6 
367 -19.4006 1.015372  1.849558E-5 
368 -17.4895 1.029543  3.574453E-5 
369 -12.8266 1.019321  2.350595E-5 
370 -14.7759 1.012786  1.564159E-5 
371 -16.5722 1.019398  2.386239E-5 
372 -17.6806 1.011402  1.410329E-5 
373 -5.0679 1.034234  4.257782E-5 
374 -17.2984 1.012113  1.514877E-5 
375 2.0029 0.982921 -2.147549E-5 
376 -6.2145 1.017272  2.183704E-5 
377 -3.6537 1.001873  2.381381E-6 
378 -15.7696 1.019144  2.446865E-5 
379 0.1301 1.003238  4.160704E-6 
380 12.7428 0.984420 -2.012984E-5 
381 5.5574 1.020390  2.648815E-5 
382 -15.0052 1.026085  3.406867E-5 
383 2.0793 1.029707  3.900870E-5 
384 -5.8323 0.998337 -2.194935E-6 
385 14.8450 1.045720  6.068144E-5 
386 -5.7559 1.020617  2.750970E-5 
387 -9.9601 1.001002  1.344688E-6 
388 14.6538 0.984500 -2.090372E-5 
389 -3.3098 0.998325 -2.270934E-6 
390 11.5198 1.015470  2.108491E-5 
391 -15.7696 1.014173  1.941988E-5 
392 -16.5340 1.017294  2.382145E-5 
393 -16.4958 1.021764  3.013663E-5 
394 -14.7377 1.010977  1.527972E-5 
395 -15.3492 1.013003  1.819523E-5 
396 -16.3811 1.010754  1.512751E-5 
397 -19.8210 1.020813  2.942896E-5 
398 -7.2847 1.028662  4.073986E-5 
399 -7.2847 0.978811 -3.027439E-5 
400 -16.4194 1.019380  2.783427E-5 
401 13.0486 1.003173  4.580088E-6 
402 1.7736 1.019105  2.772365E-5 
403 -16.2665 1.029438  4.293824E-5 
404 -4.6475 1.017569  2.575894E-5 
405 2.3087 1.024351  3.588602E-5 
406 1.3914 0.999770 -3.404250E-7 
407 -17.3367 1.022216  3.307595E-5 
408 -7.4376 1.016135  2.414524E-5 
409 -14.5848 0.996517 -5.238254E-6 
410 19.1256 0.993916 -9.197357E-6 
411 15.2654 1.016278  2.473285E-5 
412 -16.3811 1.033702  5.146554E-5 
413 -15.1581 1.011446  1.756813E-5 
414 16.6031 1.014028  2.163986E-5 
415 14.5392 1.035771  5.545642E-5 
416 0.0919 1.017398  2.710905E-5 
417 14.0041 1.025891  4.054372E-5 
418 -18.4450 0.996210 -5.964681E-6 
419 -1.6281 0.979750 -3.202794E-5 
420 -4.2653 1.033062  5.255424E-5 
421 -16.2665 1.035015  5.593498E-5 
422 -0.9019 1.014559  2.337338E-5 
423 12.7810 0.993356 -1.071991E-5 
424 2.0793 0.995394 -7.467526E-6 
425 -4.4946 1.037583  6.123587E-5 
426 -16.9544 1.021472  3.515723E-5 
427 -16.7633 1.024372  4.010186E-5 
428 -14.9670 1.039307  6.499445E-5 
429 -16.8016 0.998714 -2.137474E-6 
430 -3.8448 1.005691  9.502573E-6 
431 2.2704 1.001454  2.439289E-6 
432 -17.5660 1.014645  2.469187E-5 
433 -2.7364 0.995652 -7.365750E-6 
434 -16.6869 1.042958  7.313392E-5 
435 -17.9100 1.006101  1.043683E-5 
436 -16.3047 1.018430  3.168027E-5 
437 0.2830 1.006001  1.036568E-5 
438 -15.9607 1.036279  6.296589E-5 
439 1.8500 1.013417  2.339907E-5 
440 -0.6725 1.041176  7.215147E-5 
441 -15.6550 1.000470  8.269237E-7 
442 -15.8078 1.011735  2.076102E-5 
443 14.5774 1.025961  4.614615E-5 
444 19.0110 1.010272  1.834564E-5 
445 2.1175 1.022327  4.006485E-5 
446 -1.7809 1.026831  4.837575E-5 
447 -18.8272 1.017321  3.137635E-5 
448 -14.9670 1.033639  6.122474E-5 
449 -17.4895 1.013675  2.500625E-5 
450 -3.3098 1.031751  5.833383E-5 
451 12.8957 1.022087  4.076985E-5 
452 -17.4895 1.021392  3.967222E-5 
453 -17.4513 1.005649  1.052513E-5 
454 -18.0246 1.024405  4.568300E-5 
455 -12.7502 1.029704  5.586196E-5 
456 -16.8780 0.986583 -2.535027E-5 
457 -0.9783 1.029901  5.675675E-5 
458 2.8437 1.006075  1.158468E-5 
459 -14.4319 1.004402  8.433009E-6 
460 -16.1900 1.018647  3.588773E-5 
461 -0.2521 1.002604  5.035707E-6 
462 0.3594 1.007623  1.480695E-5 
463 -16.8780 1.024084  4.699468E-5 
464 -0.4432 0.996260 -7.332142E-6 
465 -17.2220 1.009311  1.833644E-5 
466 0.4358 1.009459  1.871145E-5 
467 -3.2333 1.023158  4.602068E-5 
468 1.5060 1.009659  1.928325E-5 
469 -16.4958 1.016141  3.236782E-5 
470 -15.4256 1.000316  6.368884E-7 
471 -17.7953 1.036033  7.291653E-5 
472 -1.4370 1.013136  2.670190E-5 
473 -14.7377 1.005641  1.151800E-5 
474 -15.4256 1.020295  4.162603E-5 
475 12.6664 1.021417  4.412479E-5 
476 -3.6920 1.028704  5.940397E-5 
477 -16.3429 1.001383  2.874247E-6 
478 -1.5516 1.002660  5.554942E-6 
479 -1.7427 1.015625  3.277163E-5 
480 -16.0754 0.990766 -1.945437E-5 
481 -15.1581 1.014702  3.111195E-5 
482 -0.2521 1.005236  1.112875E-5 
483 -18.0628 0.992530 -1.594841E-5 
484 -16.9544 1.028571  6.126843E-5 
485 -11.6036 1.001034  2.227762E-6 
486 -4.9915 1.024667  5.336401E-5 
487 -16.1518 1.026545  5.767911E-5 
488 -15.2345 1.016595  3.621758E-5 
489 -0.8636 1.014047  3.079194E-5 
490 -3.0422 1.001385  3.048818E-6 
491 -13.5146 0.986532 -2.978049E-5 
492 -17.4513 1.008783  1.950498E-5 
493 -17.6424 1.059139  1.319110E-4 
494 -1.0165 1.009722  2.177985E-5 
495 -17.0309 1.008499  1.912186E-5 
496 -15.6550 0.998058 -4.388784E-6 
497 -15.1199 1.020941  4.752435E-5 
498 -15.5785 1.030802  7.020572E-5 
499 -15.5785 1.024916  5.703441E-5 
500 -18.8655 1.012988  2.985831E-5 
501 3.4935 1.014724  3.399435E-5 
502 -4.1124 1.014539  3.371271E-5 
503 -16.4194 1.049660  1.156411E-4 
504 -4.3035 1.051594  1.206577E-4 
505 1.3914 1.029749  6.986862E-5 
506 -15.1199 0.996257 -8.827167E-6 
507 13.7748 0.999228 -1.829259E-6 
508 -19.8592 1.011872  2.823895E-5 
509 -16.3047 1.000764  1.824667E-6 
510 3.4935 1.004835  1.159959E-5 
511 3.7228 0.985939 -3.387324E-5 
512 13.5455 1.020155  4.875800E-5 
513 -15.1963 0.997005 -7.276982E-6 
514 -14.0879 1.019406  4.734168E-5 
515 -16.1518 1.008726  2.137781E-5 
516 -18.6361 0.997089 -7.160596E-6 
517 -16.6487 0.998723 -3.155215E-6 
518 0.1683 1.007799  1.934693E-5 
519 -16.9544 1.028633  7.132560E-5 
520 -16.1900 1.001756  4.393014E-6 
521 -2.0103 1.012191  3.062016E-5 
522 -16.3811 1.002110  5.321226E-6 
523 -15.8078 1.008653  2.191373E-5 
524 -18.2539 1.009237  2.349146E-5 
525 12.9339 1.008673  2.214702E-5 
526 14.1952 1.012885  3.303815E-5 
527 12.5135 0.994565 -1.399434E-5 
528 -16.4194 1.006044  1.562481E-5 
529 -18.6744 1.030416  7.895489E-5 
530 -17.1455 1.003713  9.677541E-6 
531 14.7303 1.017676  4.626001E-5 
532 -5.3737 1.027843  7.316481E-5 
533 -14.8523 1.006468  1.706656E-5 
534 -7.2847 1.004395  1.164213E-5 
535 4.9076 0.994953 -1.342514E-5 
536 -17.5660 0.997358 -7.056548E-6 
537 0.8181 1.021674  5.812073E-5 
538 0.7034 1.008765  2.359863E-5 
539 -15.8461 0.994682 -1.437506E-5 
540 -0.2521 1.019713  5.350511E-5 
541 -6.2145 1.025253  6.881873E-5 
542 -16.8016 1.020718  5.668652E-5 
543 -5.2972 1.035455  9.739608E-5 
544 -18.7890 1.020038  5.526656E-5 
545 14.1952 1.022298  6.174646E-5 
546 14.5392 1.033263  9.247679E-5 
547 -17.3749 1.019670  5.490408E-5 
548 -18.1393 1.017266  4.838508E-5 
549 -0.7108 0.978065 -6.171294E-5 
550 14.1188 0.993195 -1.922147E-5 
551 -16.8780 0.993643 -1.802800E-5 
552 -2.8893 1.034261  9.754206E-5 
553 16.5649 0.994058 -1.698334E-5 
554 -17.0691 0.998696 -3.742536E-6 
555 10.6407 1.020490  5.902830E-5 
 5.895508  91.00  90.00 -0.00 0.09
  0 0.0536 0.911196 -5.000071E-6 
  1 -1.0165 0.904113 -5.402524E-6 
  2 -7.4758 1.022412  1.263897E-6 
  3 2.0411 1.038766  2.188803E-6 
  4 0.3594 1.028767  1.626578E-6 
  5 -0.6725 1.010320  5.845059E-7 
  6 -2.6600 1.047947  2.720952E-6 
  7 -11.0685 1.029238  1.662881E-6 
  8 1.7736 1.005127  2.922891E-7 
  9 0.7034 1.037645  2.152131E-6 
 10 14.9214 1.019331  1.108385E-6 
 11 2.0411 1.006986  4.018420E-7 
 12 -6.3292 1.025492  1.471369E-6 
 13 0.3212 1.021852  1.265974E-6 
 14 -3.7302 1.028447  1.654499E-6 
 15 -3.6537 1.003964  2.315070E-7 
 16 13.0104 1.005636  3.305841E-7 
 17 -6.4820 1.006445  3.798439E-7 
 18 -7.2082 1.023501  1.391689E-6 
 19 0.7034 1.036909  2.196863E-6 
 20 17.7879 1.022833  1.366284E-6 
 21 -4.9915 1.014023  8.437557E-7 
 22 -5.7941 0.991976 -4.855600E-7 
 23 3.7228 1.036975  2.250875E-6 
 24 -10.5716 1.046613  2.855133E-6 
 25 -7.9726 1.038357  2.364460E-6 
 26 -3.0040 1.009591  5.950975E-7 
 27 -3.0040 1.051341  3.207227E-6 
 28 2.4615 0.994092 -3.716708E-7 
 29 -4.7239 0.994082 -3.749450E-7 
 30 -0.6343 1.002036  1.299140E-7 
 31 -13.6675 1.023927  1.538580E-6 
 32 1.1238 1.019384  1.256064E-6 
 33 0.5505 0.998412 -1.037265E-7 
 34 1.2385 1.004267  2.809379E-7 
 35 3.3788 1.021701  1.440460E-6 
 36 12.0166 1.007261  4.860304E-7 
 37 -10.5716 0.998235 -1.191654E-7 
 38 -0.6725 1.010305  7.016924E-7 
 39 -11.7182 1.022625  1.554197E-6 
 40 2.4998 1.033299  2.307973E-6 
 41 2.3851 1.001830  1.279876E-7 
 42 -7.8198 1.021690  1.531104E-6 
 43 -2.9658 0.998054 -1.386481E-7 
 44 3.1877 0.986607 -9.633897E-7 
 45 -7.0171 1.029164  2.118001E-6 
 46 -9.5397 0.994437 -4.079137E-7 
 47 -6.0616 1.040168  2.974664E-6 
 48 17.0235 1.023129  1.729926E-6 
 49 12.3606 1.030274  2.287169E-6 
 50 3.1113 1.002237  1.706969E-7 
 51 13.3544 0.992056 -6.125060E-7 
 52 -5.2590 1.023023  1.793631E-6 
 53 -4.7621 0.990373 -7.578799E-7 
 54 11.5962 1.057195  4.550077E-6 
 55 -19.8592 1.017182  1.381415E-6 
 56 12.1313 1.008641  7.021572E-7 
 57 12.9339 1.036743  3.018107E-6 
 58 -11.1832 1.007520  6.244458E-7 
 59 1.2385 1.004249  3.566459E-7 
 60 2.6909 1.032957  2.797040E-6 
 61 14.2334 0.994816 -4.448606E-7 
 62 3.4553 1.026803  2.325541E-6 
 63 -7.5904 1.000184  1.612436E-8 
 64 15.8005 1.022233  1.972576E-6 
 65 -19.5534 1.014670  1.316303E-6 
 66 -9.9219 1.049195  4.464307E-6 
 67 1.9647 1.003972  3.645325E-7 
 68 -7.9726 1.015292  1.419546E-6 
 69 -0.1757 1.023977  2.251327E-6 
 70 -11.5271 0.996456 -3.366080E-7 
 71 -3.3098 1.025019  2.403769E-6 
 72 12.0166 1.009972  9.691792E-7 
 73 0.7416 0.998233 -1.736918E-7 
 74 -6.5967 1.020234  2.012578E-6 
 75 -4.5328 1.011202  1.127229E-6 
 76 -7.0936 1.032302  3.288321E-6 
 77 -7.5904 1.003405  3.506781E-7 
 78 14.3481 1.023221  2.419701E-6 
 79 15.3418 0.985227 -1.557409E-6 
 80 -9.4632 1.006051  6.454347E-7 
 81 -7.5522 1.038128  4.114829E-6 
 82 14.6538 1.053934  5.889310E-6 
 83 -6.4820 1.022360  2.470451E-6 
 84 -0.6343 1.018567  2.075516E-6 
 85 2.0029 1.019604  2.217414E-6 
 86 12.6282 1.015464  1.769817E-6 
 87 -7.8580 1.031632  3.662841E-6 
 88 12.7046 1.014040  1.645054E-6 
 89 3.1877 1.017026  2.018467E-6 
 90 3.4935 1.016247  1.948814E-6 
 91 14.0041 1.009037  1.096836E-6 
 92 14.8067 1.032151  3.948181E-6 
 93 -8.9282 1.017410  2.163188E-6 
 94 -9.1575 1.013907  1.748339E-6 
 95 -5.1443 1.019309  2.456048E-6 
 96 13.7748 0.976914 -2.971093E-6 
 97 -8.3931 1.033289  4.334562E-6 
 98 13.9659 1.039746  5.236194E-6 
 99 -8.1637 1.004841  6.452381E-7 
100 15.8387 1.009098  1.226832E-6 
101 1.2003 1.024403  3.329377E-6 
102 -7.6287 0.980973 -2.626289E-6 
103 -6.7878 1.000234  3.264721E-8 
104 -16.9544 1.036421  5.145159E-6 
105 16.1062 1.034017  4.861610E-6 
106 -12.6355 1.014996  2.168085E-6 
107 -4.0742 1.024307  3.555085E-6 
108 -6.3292 0.998800 -1.774906E-7 
109 3.5317 1.016127  2.413635E-6 
110 11.0993 1.003390  5.131561E-7 
111 -10.4952 1.032009  4.901732E-6 
112 -11.5271 0.989959 -1.555338E-6 
113 1.5442 1.021291  3.335680E-6 
114 -7.1700 0.994953 -7.997278E-7 
115 -7.2082 1.019591  3.139963E-6 
116 -8.5842 1.014264  2.312370E-6 
117 -7.0554 1.029168  4.782070E-6 
118 -6.5967 1.002773  4.598275E-7 
119 17.2911 1.016612  2.785649E-6 
120 13.8130 1.028740  4.873860E-6 
121 -8.1255 1.013677  2.345585E-6 
122 -8.1637 1.016060  2.785153E-6 
123 -8.2784 1.012057  2.114428E-6 
124 5.7485 1.027371  4.853656E-6 
125 3.7610 1.009968  1.787263E-6 
126 3.5317 1.007269  1.317850E-6 
127 -5.7176 1.004038  7.401474E-7 
128 -14.6994 1.016834  3.120070E-6 
129 14.6538 1.034968  6.552722E-6 
130 -8.2784 1.015348  2.907726E-6 
131 -14.3937 1.010736  2.056387E-6 
132 -13.8204 1.011773  2.279625E-6 
133 -8.1637 1.025538  4.998897E-6 
134 -5.7176 1.022887  4.528707E-6 
135 -10.8774 1.002643  5.286399E-7 
136 -7.1318 0.996435 -7.207136E-7 
137 -5.2208 1.017628  3.602722E-6 
138 -5.2208 0.996103 -8.050323E-7 
139 -6.2909 1.011144  2.326737E-6 
140 14.1188 1.011883  2.507628E-6 
141 -7.2465 1.031027  6.617194E-6 
142 14.2334 1.024156  5.206589E-6 
143 15.4565 1.021171  4.611434E-6 
144 2.8820 1.023305  5.129965E-6 
145 12.5135 1.015277  3.398356E-6 
146 -6.6349 1.017818  4.005101E-6 
147 -16.3811 0.999837 -3.713047E-8 
148 -1.3223 0.968630 -7.199577E-6 
149 8.6150 1.010006  2.320381E-6 
150 14.5010 1.018936  4.436789E-6 
151 -14.0115 1.022847  5.408463E-6 
152 -8.1255 0.987669 -2.949033E-6 
153 -17.1073 1.023902  5.775249E-6 
154 -10.4570 1.029873  7.291932E-6 
155 -6.8260 0.997048 -7.278625E-7 
156 -7.7433 0.983380 -4.140154E-6 
157 -16.8780 1.034896  8.780777E-6 
158 -8.6988 0.992044 -2.022240E-6 
159 3.3406 1.009908  2.543833E-6 
160 -7.1318 1.016229  4.208332E-6 
161 15.8387 1.004034  1.056473E-6 
162 -7.7051 1.005755  1.522481E-6 
163 -10.0365 1.042647  1.139360E-5 
164 14.5010 0.993283 -1.812416E-6 
165 -6.8260 0.995349 -1.267180E-6 
166 -6.5585 1.028160  7.748796E-6 
167 -7.3993 1.009154  2.543497E-6 
168 -7.4758 1.013200  3.703948E-6 
169 13.4308 1.006694  1.896557E-6 
170 -4.0742 0.998599 -4.008618E-7 
171 14.1188 1.018512  5.347474E-6 
172 -7.7433 1.016277  4.747330E-6 
173 15.5329 0.993028 -2.053164E-6 
174 5.4427 1.022667  6.738788E-6 
175 4.6783 1.019640  5.894666E-6 
176 -5.5648 1.011705  3.546658E-6 
177 -10.7627 1.019684  6.021088E-6 
178 -8.8135 1.022495  6.946275E-6 
179 -8.6606 1.003983  1.241402E-6 
180 -5.2972 1.020617  6.486890E-6 
181 -12.9413 1.023640  7.507902E-6 
182 14.3863 1.016595  5.319744E-6 
183 -7.4758 1.006783  2.194573E-6 
184 -6.7114 0.995684 -1.409485E-6 
185 -6.6349 0.990516 -3.125676E-6 
186 -4.7239 1.019372  6.443588E-6 
187 14.3481 0.992302 -2.584129E-6 
188 -4.3799 1.002985  1.011109E-6 
189 -6.7114 1.035185  1.202875E-5 
190 -8.1637 1.000495  1.707952E-7 
191 -5.9470 1.003207  1.116324E-6 
192 -10.5716 0.997678 -8.156697E-7 
193 14.9596 1.031575  1.119159E-5 
194 -9.3868 1.022720  8.125479E-6 
195 1.8118 1.021749  7.847955E-6 
196 -6.9789 1.006532  2.378020E-6 
197 -8.6224 0.962825 -1.365462E-5 
198 -7.8962 1.021180  7.848749E-6 
199 -0.4050 1.022746  8.503556E-6 
200 -6.6349 0.989121 -4.103032E-6 
201 -7.7433 1.004137  1.574069E-6 
202 -7.1318 1.012511  4.801930E-6 
203 -8.0109 1.020003  7.744314E-6 
204 -6.4056 1.021025  8.210780E-6 
205 6.7040 0.993313 -2.634206E-6 
206 3.9139 1.026059  1.035414E-5 
207 0.4358 0.998247 -7.024448E-7 
208 -7.7433 1.034708  1.402913E-5 
209 -14.3555 1.004464  1.819967E-6 
210 -14.7377 1.028012  1.151756E-5 
211 1.3149 0.994946 -2.095627E-6 
212 13.5455 1.022069  9.228740E-6 
213 12.4753 0.999182 -3.449362E-7 
214 3.5699 1.021893  9.310644E-6 
215 3.3024 1.003763  1.613616E-6 
216 -6.0998 1.033046  1.429094E-5 
217 14.5774 1.025459  1.110209E-5 
218 -5.4501 1.019715  8.668954E-6 
219 12.6664 1.009370  4.154222E-6 
220 -6.5585 0.991735 -3.694816E-6 
221 15.0743 1.017616  7.939864E-6 
222 -9.1957 1.015805  7.182274E-6 
223 -9.7308 1.049516  2.268564E-5 
224 -9.8072 1.028591  1.320610E-5 
225 -5.3354 1.005634  2.623356E-6 
226 -7.0171 1.008527  4.002885E-6 
227 -7.2847 1.013467  6.373242E-6 
228 16.5266 1.020512  9.785692E-6 
229 -8.5077 1.001024  4.925662E-7 
230 -4.4564 1.014490  7.024425E-6 
231 3.5699 1.013555  6.623949E-6 
232 13.8130 1.031719  1.562345E-5 
233 1.0474 1.012144  6.029116E-6 
234 -6.2909 1.033645  1.683639E-5 
235 3.5699 1.034386  1.734293E-5 
236 14.6156 1.010404  5.288852E-6 
237 -8.0491 0.991284 -4.465374E-6 
238 2.9966 1.000791  4.085803E-7 
239 -9.1957 1.024266  1.262753E-5 
240 -14.3937 1.020433  1.071572E-5 
241 -7.0171 0.978226 -1.150769E-5 
242 -8.0873 1.008647  4.605101E-6 
243 -6.2145 1.010057  5.397835E-6 
244 -9.9219 1.022226  1.202037E-5 
245 15.8387 1.022911  1.248580E-5 
246 -8.1637 1.013376  7.345417E-6 
247 -5.4119 1.012487  6.909322E-6 
248 3.6464 0.990554 -5.266304E-6 
249 -5.5265 0.999685 -1.769021E-7 
250 -9.6161 1.001483  8.395025E-7 
251 -6.5967 1.006207  3.539881E-6 
252 -7.7815 0.985611 -8.267551E-6 
253 14.9978 1.001739  1.006888E-6 
254 1.1620 1.019614  1.143851E-5 
255 -6.0616 1.008727  5.127468E-6 
256 15.9533 1.021803  1.290513E-5 
257 15.7622 0.993659 -3.780969E-6 
258 16.7942 1.006346  3.811742E-6 
259 -10.3805 0.982725 -1.045285E-5 
260 13.2397 1.033392  2.035370E-5 
261 14.9596 1.004565  2.802694E-6 
262 14.6921 1.019268  1.191691E-5 
263 -8.1255 1.000431  2.687765E-7 
264 -16.3811 1.021338  1.338958E-5 
265 -5.4501 1.010950  6.921003E-6 
266 -10.2276 1.033386  2.125362E-5 
267 -5.9852 1.012510  8.021257E-6 
268 14.3481 0.997084 -1.882853E-6 
269 -7.6287 1.029919  1.945924E-5 
270 -5.5648 0.993656 -4.155722E-6 
271 12.9721 0.998813 -7.829209E-7 
272 -6.7114 0.992884 -4.727775E-6 
273 -11.9093 1.014965  1.001286E-5 
274 -8.5460 1.017180  1.157559E-5 
275 18.0555 1.026284  1.783470E-5 
276 14.6921 1.001815  1.240043E-6 
277 4.7548 1.021037  1.447475E-5 
278 -5.8705 1.026766  1.854523E-5 
279 -13.7439 1.013224  9.226077E-6 
280 -11.9476 1.004411  3.099078E-6 
281 -7.0936 1.019530  1.381553E-5 
282 -6.2145 1.019968  1.422217E-5 
283 -8.4695 1.022677  1.626281E-5 
284 -2.2778 1.002469  1.782747E-6 
285 -6.6732 1.019766  1.437061E-5 
286 4.0668 0.998986 -7.424363E-7 
287 2.8820 1.016442  1.211729E-5 
288 -9.8072 1.021196  1.572698E-5 
289 -8.1637 1.012453  9.302436E-6 
290 -15.6167 1.007939  5.970717E-6 
291 -7.6287 0.995642 -3.299127E-6 
292 -13.9733 1.035306  2.690926E-5 
293 -6.9407 1.016260  1.247574E-5 
294 -7.7815 0.994135 -4.529970E-6 
295 4.9841 0.984381 -1.214420E-5 
296 -10.0365 1.007753  6.068597E-6 
297 -9.5397 1.032968  2.597525E-5 
298 -4.3799 1.017507  1.388505E-5 
299 8.1946 1.019811  1.581576E-5 
300 3.3788 1.029443  2.365938E-5 
301 -7.3993 1.006033  4.880068E-6 
302 -7.9726 1.034217  2.785721E-5 
303 -6.9025 1.005281  4.327156E-6 
304 -8.0873 1.001558  1.284782E-6 
305 -7.7051 1.000231  1.915753E-7 
306 14.3099 1.025264  2.110783E-5 
307 -15.9989 0.995777 -3.550740E-6 
308 -11.1449 1.033644  2.847268E-5 
309 0.7798 1.017341  1.476952E-5 
310 -7.5522 1.020807  1.783503E-5 
311 5.1370 0.996792 -2.767652E-6 
312 -7.5140 0.988528 -9.959088E-6 
313 4.9459 1.037212  3.251100E-5 
314 -11.4125 1.036981  3.251376E-5 
315 -7.7051 1.010677  9.446758E-6 
316 11.0611 1.016889  1.503703E-5 
317 -6.8643 0.999154 -7.576863E-7 
318 14.5010 0.990081 -8.942860E-6 
319 -16.3811 1.041021  3.721474E-5 
320 -5.7559 1.027191  2.482204E-5 
321 -1.9720 1.011550  1.060904E-5 
322 -6.3674 1.021398  1.977676E-5 
323 -17.7953 1.042586  3.960383E-5 
324 12.5899 1.028851  2.699667E-5 
325 -6.5967 1.001002  9.430996E-7 
326 -7.1318 0.996073 -3.719670E-6 
327 -7.4376 1.010032  9.561656E-6 
328 -4.9915 1.013911  1.333956E-5 
329 -8.0491 1.033646  3.246137E-5 
330 -6.9025 1.018317  1.777927E-5 
331 -8.3166 0.991001 -8.788300E-6 
332 -7.4376 1.022280  2.188911E-5 
333 4.1432 1.020080  1.984706E-5 
334 1.4296 1.001689  1.679239E-6 
335 -6.6732 1.033560  3.357163E-5 
336 -9.7308 0.990348 -9.713010E-6 
337 -5.5265 0.988107 -1.204015E-5 
338 2.7673 0.989257 -1.094136E-5 
339 -9.3486 1.014015  1.435784E-5 
340 -5.6794 1.034425  3.547790E-5 
341 3.1113 1.008312  8.617054E-6 
342 -6.7496 1.011379  1.186613E-5 
343 13.2397 1.014993  1.572787E-5 
344 -7.5904 1.037798  3.988321E-5 
345 -5.4883 0.985767 -1.510585E-5 
346 13.4690 1.017389  1.856382E-5 
347 -11.4507 1.011706  1.256953E-5 
348 -7.3229 1.022950  2.478815E-5 
349 9.1119 1.012589  1.367586E-5 
350 -7.2082 1.022650  2.474846E-5 
351 -9.1193 1.002130  2.341058E-6 
352 -8.8899 0.996672 -3.678682E-6 
353 -6.7496 1.016128  1.792962E-5 
354 12.6282 1.027816  3.110112E-5 
355 -4.7239 1.001689  1.899257E-6 
356 5.6720 1.004328  4.895240E-6 
357 15.2272 1.011308  1.286169E-5 
358 5.0987 1.031522  3.605792E-5 
359 -8.3931 1.026404  3.037472E-5 
360 -1.1694 0.992818 -8.309178E-6 
361 -14.8141 1.010597  1.232896E-5 
362 -5.4501 1.025339  2.964699E-5 
363 4.0668 1.022938  2.698982E-5 
364 -6.5203 1.003680  4.354571E-6 
365 3.0348 0.983987 -1.905284E-5 
366 14.8450 1.017917  2.143819E-5 
367 -7.7051 1.030276  3.642860E-5 
368 -7.1318 1.013466  1.629289E-5 
369 -7.2847 1.030675  3.731984E-5 
370 -13.8968 1.031593  3.865042E-5 
371 -1.8574 0.995308 -5.771819E-6 
372 13.9277 1.001191  1.472861E-6 
373 11.7491 1.009964  1.239246E-5 
374 -8.9282 1.018683  2.336455E-5 
375 4.4108 1.010503  1.320713E-5 
376 15.1125 0.985282 -1.860844E-5 
377 -8.3548 1.003563  4.529378E-6 
378 15.3036 1.012130  1.550352E-5 
379 2.1940 0.993893 -7.847889E-6 
380 -9.3104 0.993977 -7.782228E-6 
381 -6.8643 1.042710  5.548283E-5 
382 14.7685 0.999912 -1.149437E-7 
383 -7.5522 1.009020  1.184409E-5 
384 12.4371 1.039335  5.192847E-5 
385 16.7560 1.024063  3.193755E-5 
386 14.7685 1.020161  2.690225E-5 
387 1.3149 1.027465  3.684327E-5 
388 13.1633 1.004580  6.176609E-6 
389 -10.1894 1.027270  3.697312E-5 
390 -6.2145 0.992379 -1.038684E-5 
391 -7.2465 1.016586  2.272641E-5 
392 -6.4056 1.009493  1.307610E-5 
393 -2.2014 1.017279  2.392650E-5 
394 16.1444 1.028201  3.925588E-5 
395 -10.2659 1.001410  1.972830E-6 
396 -6.7496 1.013754  1.934651E-5 
397 -6.9025 1.009429  1.333222E-5 
398 15.1889 1.019011  2.702138E-5 
399 -9.2721 1.006016  8.595610E-6 
400 15.6476 1.059294  8.515787E-5 
401 4.0668 1.019097  2.756960E-5 
402 -8.0491 1.005233  7.593697E-6 
403 3.4935 0.993596 -9.340996E-6 
404 11.1376 1.011528  1.690092E-5 
405 13.1250 0.982445 -2.587011E-5 
406 12.9721 1.009744  1.443291E-5 
407 14.5392 1.024969  3.717359E-5 
408 8.2328 1.037301  5.581806E-5 
409 4.4490 1.031771  4.778570E-5 
410 -8.5077 0.997392 -3.942648E-6 
411 13.1633 1.000546  8.299117E-7 
412 -12.0622 1.024293  3.709766E-5 
413 -8.1637 1.006443  9.888449E-6 
414 2.0793 1.020905  3.224760E-5 
415 15.6858 1.024437  3.788617E-5 
416 -5.0297 1.014669  2.285634E-5 
417 -7.7815 1.004967  7.777797E-6 
418 4.6019 0.994932 -7.975563E-6 
419 13.7366 1.015980  2.527409E-5 
420 -10.8010 1.001339  2.128439E-6 
421 14.3481 1.020111  3.212712E-5 
422 -6.5585 1.032749  5.257560E-5 
423 -18.4833 1.027326  4.408694E-5 
424 -9.3104 1.005323  8.629821E-6 
425 -6.9025 1.019321  3.148085E-5 
426 -8.0109 1.010926  1.788996E-5 
427 6.2071 1.017823  2.932712E-5 
428 -6.1763 1.034389  5.686250E-5 
429 2.1940 0.996678 -5.520158E-6 
430 -10.3041 1.033763  5.637540E-5 
431 -6.6349 1.027530  4.619208E-5 
432 18.6670 1.009360  1.578188E-5 
433 -7.7433 1.016532  2.800868E-5 
434 -8.1637 0.995040 -8.444731E-6 
435 -2.0103 0.990615 -1.605496E-5 
436 -7.6669 1.017059  2.932455E-5 
437 -9.7690 1.014974  2.586396E-5 
438 -7.0554 0.998522 -2.564772E-6 
439 16.8706 0.989894 -1.762416E-5 
440 3.1113 1.014249  2.496834E-5 
441 -7.9344 1.010331  1.818971E-5 
442 -7.2847 1.016172  2.860952E-5 
443 -6.2145 1.030160  5.361070E-5 
444 -4.7239 1.017059  3.046688E-5 
445 -12.8266 1.025856  4.639802E-5 
446 -7.2082 1.041835  7.542687E-5 
447 -8.1637 1.035924  6.507610E-5 
448 -5.6030 1.028463  5.180416E-5 
449 -8.1637 1.019166  3.504790E-5 
450 -8.2020 1.018950  3.481512E-5 
451 -5.5648 1.006596  1.217569E-5 
452 -14.5848 1.002918  5.411459E-6 
453 -7.7051 1.018204  3.391794E-5 
454 -6.0616 1.009913  1.855612E-5 
455 3.4935 1.003525  6.629550E-6 
456 -5.6030 0.999399 -1.136109E-6 
457 -8.1637 1.006083  1.154558E-5 
458 12.3988 1.008615  1.642859E-5 
459 14.1570 1.021464  4.112002E-5 
460 -7.0171 0.994308 -1.095560E-5 
461 -5.9470 0.985418 -2.819528E-5 
462 -7.9726 1.014635  2.842609E-5 
463 -7.8962 1.012273  2.394838E-5 
464 13.9659 1.015001  2.940571E-5 
465 -7.9344 0.996568 -6.759184E-6 
466 -7.0554 1.042889  8.484440E-5 
467 -6.4056 0.981692 -3.638168E-5 
468 -8.5460 1.009372  1.870884E-5 
469 3.0348 1.013339  2.675049E-5 
470 -4.0359 1.005725  1.153228E-5 
471 -0.8636 1.007330  1.483295E-5 
472 -7.4376 1.013455  2.735042E-5 
473 -6.1763 1.024943  5.093173E-5 
474 15.5329 1.014346  2.942480E-5 
475 13.3926 1.000806  1.660778E-6 
476 -9.0810 1.024447  5.059511E-5 
477 -15.9989 1.005225  1.086244E-5 
478 -3.9977 1.005987  1.250155E-5 
479 15.1889 1.028544  5.986973E-5 
480 -6.5203 1.000048  1.013456E-7 
481 13.7748 1.017409  3.683999E-5 
482 14.4245 1.013814  2.936300E-5 
483 -8.5460 0.995277 -1.008386E-5 
484 -7.0936 1.021607  4.633489E-5 
485 -5.8323 1.038378  8.266084E-5 
486 2.0411 1.017380  3.760043E-5 
487 4.3726 1.020296  4.410050E-5 
488 -8.5077 1.011832  2.582168E-5 
489 -6.4820 0.993568 -1.409803E-5 
490 1.0856 1.029962  6.596371E-5 
491 -6.5585 0.999432 -1.256222E-6 
492 7.8888 1.013161  2.922909E-5 
493 -7.4758 1.017225  3.842170E-5 
494 13.2015 1.008196  1.836055E-5 
495 13.4308 1.022788  5.127231E-5 
496 -6.0234 1.004078  9.214252E-6 
497 14.7685 1.005287  1.199839E-5 
498 -5.6794 1.010095  2.300868E-5 
499 -11.4125 1.018593  4.256224E-5 
500 -10.6481 1.039159  9.002407E-5 
501 14.0423 0.987861 -2.802681E-5 
502 -9.0810 1.021388  4.959305E-5 
503 15.4947 1.016860  3.926231E-5 
504 -11.0685 1.012828  2.999990E-5 
505 14.5392 0.998146 -4.354595E-6 
506 3.3406 1.005830  1.375080E-5 
507 -10.4570 1.026378  6.247847E-5 
508 3.7228 1.021702  5.162172E-5 
509 13.2397 1.006414  1.532264E-5 
510 -9.5779 0.988200 -2.830598E-5 
511 13.7366 1.016413  3.953869E-5 
512 -7.0936 0.994431 -1.347305E-5 
513 -9.5397 1.027583  6.700787E-5 
514 -16.5722 0.995853 -1.011594E-5 
515 -16.6105 1.001970  4.827011E-6 
516 -3.1187 1.042421  1.043574E-4 
517 15.6858 1.045205  1.116728E-4 
518 15.2654 1.002223  5.513838E-6 
519 13.9659 1.007203  1.794198E-5 
520 12.1313 1.035637  8.913984E-5 
521 14.4245 0.991730 -2.077265E-5 
522 -6.9789 0.995933 -1.025749E-5 
523 13.2015 0.999558 -1.118468E-6 
524 -3.1951 1.014513  3.690892E-5 
525 6.7804 1.041913  1.070290E-4 
526 -8.3548 1.017093  4.382859E-5 
527 11.2905 0.985730 -3.673912E-5 
528 14.3481 1.007799  2.016155E-5 
529 -5.9087 1.017468  4.534364E-5 
530 3.1495 1.019845  5.172408E-5 
531 13.6983 1.008169  2.137816E-5 
532 -3.5009 1.034565  9.082889E-5 
533 -5.1443 1.028254  7.454805E-5 
534 -10.3423 1.025952  6.875313E-5 
535 -6.2909 1.002307  6.137119E-6 
536 -8.3166 0.987431 -3.356892E-5 
537 16.9471 1.032593  8.740122E-5 
538 3.3788 1.033336  8.975602E-5 
539 -5.9087 1.010372  2.803818E-5 
540 -9.1193 0.981142 -5.118477E-5 
541 -8.8517 1.023524  6.410612E-5 
542 15.7240 1.019017  5.203084E-5 
543 -7.7051 0.996041 -1.087457E-5 
544 -7.0554 1.012444  3.432168E-5 
545 -4.8386 0.999551 -1.242889E-6 
546 14.8067 1.015276  4.246856E-5 
547 -7.3611 1.046415  1.295547E-4 
548 14.0423 0.995663 -1.215351E-5 
549 15.8387 0.981501 -5.204597E-5 
550 -7.8962 0.981721 -5.163274E-5 
551 -7.2465 0.994567 -1.540664E-5 
552 14.6156 1.019283  5.490039E-5 
553 -10.5334 1.019921  5.694105E-5 
554 -10.9156 0.997999 -5.741195E-6 
555 -12.2533 1.022800  6.568220E-5 
