Filename:	Stare_100_20181024_02.hpl
System ID:	100
Number of gates:	556
Range gate length (m):	18.0
Gate length (pts):	6
Pulses/ray:	1000
No. of rays in file:	1
Scan type:	Stare
Focus range:	65535
Start time:	20181024 02:06:54.27
Resolution (m/s):	0.0382
Altitude of measurement (center of gate) = (range gate + 0.5) * Gate length
Data line 1: Decimal time (hours)  Azimuth (degrees)  Elevation (degrees) Pitch (degrees) Roll (degrees)
f9.6,1x,f6.2,1x,f6.2
Data line 2: Range Gate  Doppler (m/s)  Intensity (SNR + 1)  Beta (m-1 sr-1)
i3,1x,f6.4,1x,f8.6,1x,e12.6 - repeat for no. gates
****
 2.115050  91.00  90.00 -0.00 0.09
  0 -0.2903 0.816305 -1.034292E-5
  1 -1.3605 0.821170 -1.007574E-5
  2 7.6595 1.110447  6.228669E-6
  3 -0.6343 1.036116  2.039182E-6
  4 -14.2408 1.003365  1.902915E-7
  5 1.6971 1.031822  1.802396E-6
  6 7.5831 1.020636  1.171064E-6
  7 5.4809 1.032570  1.852390E-6
  8 -0.4432 1.014233  8.114680E-7
  9 8.4621 1.047075  2.691242E-6
 10 10.9847 1.045655  2.617758E-6
 11 -1.7045 1.013813  7.945292E-7
 12 -0.6343 1.044920  2.592782E-6
 13 1.1620 1.041018  2.376315E-6
 14 -0.4432 1.014147  8.228179E-7
 15 -0.7872 1.015389  8.987533E-7
 16 8.3475 1.027998  1.642392E-6
 17 -18.4068 1.032282  1.902453E-6
 18 -0.3286 1.030220  1.789635E-6
 19 -0.4814 1.048377  2.879435E-6
 20 -0.3668 1.016672  9.976045E-7
 21 2.4998 1.024854  1.495434E-6
 22 1.1238 1.016544  1.001143E-6
 23 -0.7108 1.032789  1.996075E-6
 24 -2.5453 1.042860  2.625254E-6
 25 -1.7809 1.013114  8.083740E-7
 26 -0.7108 1.022656  1.405806E-6
 27 0.5505 1.044220  2.762438E-6
 28 -0.1375 0.995513 -2.822434E-7
 29 -0.9019 1.037830  2.396796E-6
 30 8.9972 1.036718  2.343435E-6
 31 -0.4050 1.029407  1.890954E-6
 32 -1.0930 1.045159  2.926253E-6
 33 0.0919 1.044788  2.925084E-6
 34 0.7798 1.033257  2.189471E-6
 35 7.6977 1.031477  2.089345E-6
 36 0.3594 1.054066  3.618781E-6
 37 0.1683 1.041399  2.794637E-6
 38 -1.6663 1.038665  2.632720E-6
 39 -0.7108 1.035954  2.469784E-6
 40 -0.4050 1.017700  1.226776E-6
 41 1.4678 1.035436  2.478447E-6
 42 -0.4050 1.021809  1.539510E-6
 43 -0.3668 1.030923  2.203350E-6
 44 -0.2903 1.040616  2.921536E-6
 45 0.9709 1.021792  1.582567E-6
 46 -0.1757 1.025071  1.838533E-6
 47 -1.4752 1.020186  1.494899E-6
 48 8.3857 1.032077  2.399182E-6
 49 -0.4432 1.012033  9.090957E-7
 50 0.3594 1.007822  5.969317E-7
 51 -10.1512 1.013430  1.035528E-6
 52 -17.6806 1.000877  6.830834E-8
 53 9.4559 1.020178  1.588466E-6
 54 -12.3298 1.044517  3.541443E-6
 55 -16.0372 1.011678  9.389186E-7
 56 -2.0485 0.996906 -2.513886E-7
 57 10.4114 1.007870  6.464358E-7
 58 18.5523 1.014596  1.211952E-6
 59 13.6601 1.032484  2.726866E-6
 60 8.2328 1.017177  1.457839E-6
 61 6.3982 1.037440  3.212710E-6
 62 -17.4513 1.017595  1.526655E-6
 63 17.9026 1.001148  1.007347E-7
 64 9.2265 1.004754  4.217669E-7
 65 6.4365 1.008113  7.279676E-7
 66 -15.3874 1.028601  2.595425E-6
 67 18.8199 1.018910  1.735615E-6
 68 -3.9213 0.997391 -2.422210E-7
 69 14.1952 1.019658  1.845852E-6
 70 0.7798 1.014504  1.377547E-6
 71 -3.3480 1.014258  1.369862E-6
 72 3.1495 1.037527  3.647195E-6
 73 18.4377 0.997206 -2.746731E-7
 74 7.4302 1.023940  2.381139E-6
 75 14.6538 1.015239  1.533451E-6
 76 -1.6663 0.998136 -1.897635E-7
 77 1.3914 1.006712  6.912940E-7
 78 -18.4068 1.013892  1.447591E-6
 79 15.7240 1.006704  7.067361E-7
 80 -19.0183 1.024658  2.630219E-6
 81 -15.1199 1.030794  3.323377E-6
 82 -19.8592 1.016115  1.759712E-6
 83 6.0160 1.016650  1.839488E-6
 84 -19.1330 1.026895  3.006555E-6
 85 8.5768 1.002166  2.449675E-7
 86 -17.6424 1.016897  1.933753E-6
 87 -8.2784 1.013059  1.512197E-6
 88 -1.7427 0.996703 -3.862526E-7
 89 9.1883 1.007643  9.060387E-7
 90 8.5386 1.005731  6.874436E-7
 91 -6.2145 1.011676  1.417153E-6
 92 7.6977 1.003983  4.890807E-7
 93 7.2773 1.007626  9.475942E-7
 94 8.6532 1.013347  1.677963E-6
 95 -18.5215 1.014537  1.849027E-6
 96 5.3281 1.020020  2.576453E-6
 97 -19.2095 1.003857  5.021713E-7
 98 -19.8974 1.009769  1.286949E-6
 99 10.8700 1.014606  1.946852E-6
100 13.6983 1.011215  1.512349E-6
101 -4.1888 1.015941  2.174872E-6
102 6.9333 1.003552  4.902807E-7
103 9.3794 1.012207  1.704578E-6
104 13.6219 1.022136  3.127105E-6
105 7.6213 0.989464 -1.505794E-6
106 6.8951 1.011302  1.634051E-6
107 8.9972 1.002100  3.071870E-7
108 -2.1249 1.028908  4.276950E-6
109 10.6025 1.037438  5.603061E-6
110 7.5831 0.978956 -3.185917E-6
111 7.0862 1.026370  4.038126E-6
112 -4.3035 1.009220  1.428178E-6
113 -18.8272 1.046382  7.266826E-6
114 -19.0566 1.013005  2.060861E-6
115 -17.3749 0.999167 -1.334467E-7
116 11.7873 1.006239  1.011444E-6
117 7.8506 1.024402  4.000705E-6
118 18.8581 1.019384  3.214149E-6
119 4.6019 1.017430  2.922797E-6
120 -5.9087 1.018506  3.138251E-6
121 -17.6806 1.030984  5.313597E-6
122 -9.2339 1.013603  2.359035E-6
123 5.8249 1.006113  1.072089E-6
124 7.6977 1.012428  2.203864E-6
125 8.8061 0.998643 -2.432807E-7
126 7.3920 1.008798  1.595173E-6
127 -17.5660 1.014646  2.684918E-6
128 -17.6806 1.010462  1.939125E-6
129 8.7679 1.010929  2.048042E-6
130 -7.8580 1.011458  2.170796E-6
131 6.9715 1.035020  6.707484E-6
132 6.8951 1.028341  5.487701E-6
133 -3.9213 0.996598 -6.660181E-7
134 19.1256 0.987956 -2.383206E-6
135 -19.8592 0.998731 -2.537724E-7
136 8.0417 0.999481 -1.050357E-7
137 -17.7571 1.007023  1.435286E-6
138 19.0110 1.018199  3.759367E-6
139 16.7942 1.025390  5.300990E-6
140 6.7422 0.999303 -1.470179E-7
141 9.7999 1.008159  1.739983E-6
142 7.4684 1.016503  3.557084E-6
143 7.6595 0.995919 -8.889666E-7
144 10.0674 1.010227  2.251294E-6
145 8.9972 0.996600 -7.562799E-7
146 -11.1832 1.006368  1.431484E-6
147 8.8826 1.004275  9.709913E-7
148 8.4621 1.023360  5.361346E-6
149 7.5831 1.009537  2.211650E-6
150 -14.1261 1.014041  3.289855E-6
151 -17.6806 1.008315  1.968287E-6
152 -15.9989 1.003286  7.859728E-7
153 -12.5209 1.044396  1.072696E-5
154 -17.9482 1.015876  3.875197E-6
155 7.6595 0.987736 -3.024049E-6
156 -0.9401 1.032644  8.131724E-6
157 5.1752 1.036620  9.214552E-6
158 -17.7189 0.995932 -1.033916E-6
159 -18.2539 0.998736 -3.245036E-7
160 6.7040 1.055234  1.432305E-5
161 8.3475 1.009653  2.528247E-6
162 -19.8210 1.001269  3.355861E-7
163 6.3600 1.026150  6.986211E-6
164 -18.7126 1.020023  5.402489E-6
165 -17.9864 1.014448  3.936704E-6
166 7.8506 1.008628  2.374021E-6
167 8.0035 1.039771  1.105115E-5
168 17.6733 0.999147 -2.393805E-7
169 1.5442 1.017517  4.963035E-6
170 8.2710 0.975829 -6.914941E-6
171 10.9465 1.008552  2.470350E-6
172 -18.2922 1.028967  8.448432E-6
173 17.5968 1.017293  5.092072E-6
174 8.6915 1.025787  7.666371E-6
175 -11.2214 0.998289 -5.135438E-7
176 -3.6155 1.012386  3.752856E-6
177 10.7936 1.009415  2.879924E-6
178 -8.6988 1.018027  5.566574E-6
179 -9.0428 1.008516  2.654415E-6
180 7.2391 1.000449  1.412515E-7
181 -14.0115 1.038509  1.223015E-5
182 -14.6230 1.024257  7.775857E-6
183 -11.9858 1.010625  3.437809E-6
184 -15.1581 1.020315  6.634046E-6
185 7.4684 1.024008  7.912796E-6
186 7.0098 1.007479  2.487839E-6
187 5.9396 1.017662  5.928919E-6
188 -18.3304 1.012596  4.267124E-6
189 8.1564 1.010760  3.678654E-6
190 17.7879 1.026208  9.041563E-6
191 -13.6293 1.032702  1.138429E-5
192 -19.9739 1.013793  4.845035E-6
193 8.0417 1.014532  5.150864E-6
194 8.7297 1.012634  4.518209E-6
195 -7.4376 1.019361  6.986065E-6
196 8.1182 0.995808 -1.526315E-6
197 -14.0879 0.990623 -3.444356E-6
198 -19.2095 1.025157  9.322480E-6
199 -3.6920 0.999581 -1.564832E-7
200 8.5768 1.002185  8.239503E-7
201 8.9590 1.018509  7.042162E-6
202 -18.7126 1.024707  9.482680E-6
203 5.1370 1.022935  8.879428E-6
204 -16.9162 1.005232  2.043140E-6
205 10.6789 1.011593  4.566617E-6
206 7.3920 0.995918 -1.621729E-6
207 -18.4068 1.015348  6.151028E-6
208 -12.0622 1.021833  8.825106E-6
209 7.6595 1.025600  1.043662E-5
210 7.0862 1.007132  2.932470E-6
211 6.1307 0.982251 -7.359880E-6
212 10.2585 1.018497  7.735088E-6
213 7.8506 0.993524 -2.730975E-6
214 7.8124 1.008995  3.825206E-6
215 19.0492 1.022145  9.497066E-6
216 9.1883 1.010152  4.390277E-6
217 6.3600 1.007677  3.347804E-6
218 -7.1318 1.022675  9.970115E-6
219 -17.0309 1.004036  1.789209E-6
220 -12.0240 1.002396  1.071175E-6
221 6.2454 0.998233 -7.964689E-7
222 16.4884 1.026857  1.220445E-5
223 -17.2220 1.014877  6.815738E-6
224 8.3857 0.997508 -1.150931E-6
225 10.4114 0.999922 -3.653600E-8
226 9.3030 1.006658  3.125540E-6
227 18.2848 1.014367  6.799134E-6
228 -14.8905 1.025548  1.218827E-5
229 -17.3367 0.974744 -1.214604E-5
230 17.6733 1.004156  2.014505E-6
231 7.8124 1.030480  1.489431E-5
232 18.3230 1.025552  1.258560E-5
233 6.3600 1.004549  2.258324E-6
234 7.2773 1.014783  7.397517E-6
235 7.5831 1.013676  6.897889E-6
236 -19.4006 1.003830  1.946697E-6
237 -11.9476 1.032202  1.649830E-5
238 6.5129 1.001048  5.409353E-7
239 -14.2026 1.007748  4.031894E-6
240 -19.9356 1.007718  4.047782E-6
241 8.0799 1.001486  7.851031E-7
242 17.9026 1.020780  1.106718E-5
243 -12.6355 1.020593  1.105232E-5
244 -7.0936 1.027050  1.462945E-5
245 6.4365 1.013676  7.453104E-6
246 7.6595 1.013128  7.209112E-6
247 2.1175 1.005773  3.194168E-6
248 18.1701 1.010858  6.053619E-6
249 9.9145 0.995766 -2.378704E-6
250 6.7422 1.013276  7.514547E-6
251 -2.7747 1.021401  1.220469E-5
252 8.0417 1.021943  1.260753E-5
253 -18.5597 1.031909  1.847079E-5
254 -15.8843 1.032381  1.888425E-5
255 10.2967 1.019359  1.137420E-5
256 8.5768 1.011050  6.540206E-6
257 18.8581 1.014815  8.833943E-6
258 -9.5779 1.014179  8.516964E-6
259 -8.2402 0.985146 -8.988150E-6
260 18.5141 1.011608  7.075414E-6
261 7.6213 0.989012 -6.746544E-6
262 -19.2477 1.008640  5.343417E-6
263 -18.3686 0.995247 -2.961058E-6
264 -7.0171 1.034282  2.151224E-5
265 18.7817 0.996438 -2.251381E-6
266 -19.1712 1.010866  6.917132E-6
267 18.3612 1.015852  1.016416E-5
268 17.5204 0.985611 -9.292024E-6
269 8.4239 1.005773  3.754989E-6
270 9.4559 1.021018  1.376767E-5
271 -10.0748 1.003818  2.518700E-6
272 8.9972 1.020484  1.360923E-5
273 -18.4450 1.017989  1.203571E-5
274 -18.4833 1.036974  2.491300E-5
275 -15.6932 1.003541  2.402798E-6
276 -4.4564 1.016482  1.126200E-5
277 7.5831 0.995514 -3.086464E-6
278 -19.2095 1.014912  1.033231E-5
279 8.3475 1.027463  1.916086E-5
280 -13.0177 0.988486 -8.088973E-6
281 17.2146 1.015265  1.079833E-5
282 17.3675 0.996955 -2.168868E-6
283 9.4559 1.009554  6.851584E-6
284 8.8061 0.997110 -2.086919E-6
285 8.7679 1.023428  1.703308E-5
286 3.0731 0.993489 -4.766189E-6
287 -16.6487 0.983650 -1.204934E-5
288 6.6658 1.010658  7.907828E-6
289 8.6532 1.016714  1.248539E-5
290 19.0492 1.001405  1.056872E-6
291 -18.5979 1.032397  2.452720E-5
292 -8.8517 1.014515  1.106336E-5
293 6.0925 1.011265  8.643720E-6
294 -3.6920 1.027841  2.150424E-5
295 17.0235 1.009237  7.182425E-6
296 5.9396 1.007423  5.810133E-6
297 -16.0372 1.000648  5.108149E-7
298 -3.0804 1.004046  3.209178E-6
299 -19.7828 1.008319  6.640897E-6
300 -11.9476 0.997458 -2.042813E-6
301 7.2009 0.990047 -8.050486E-6
302 -13.5146 0.999884 -9.447455E-8
303 -16.1900 0.987539 -1.021103E-5
304 -4.7239 1.020211  1.666971E-5
305 8.6532 0.999740 -2.158422E-7
306 -2.5071 1.036578  3.056048E-5
307 7.6595 1.021673  1.822450E-5
308 -7.9726 1.024600  2.081891E-5
309 6.7040 1.017501  1.490635E-5
310 -17.0309 1.015820  1.356050E-5
311 7.7360 1.001187  1.023900E-6
312 8.6532 0.998007 -1.730068E-6
313 7.3537 1.020668  1.805656E-5
314 15.7240 0.993399 -5.803254E-6
315 -2.7364 1.011933  1.055796E-5
316 -19.3241 1.021897  1.949587E-5
317 6.5129 1.019563  1.752707E-5
318 17.5204 1.033214  2.994430E-5
319 8.8061 1.030595  2.775573E-5
320 8.1182 1.031945  2.916131E-5
321 -10.4952 0.997591 -2.212499E-6
322 -4.1888 1.036659  3.388255E-5
323 -19.4770 1.021291  1.980068E-5
324 8.5768 1.004709  4.406525E-6
325 -5.4501 1.008543  8.042767E-6
326 -14.1644 0.984178 -1.498783E-5
327 -9.9219 1.005714  5.445812E-6
328 -18.2157 1.015794  1.514535E-5
329 8.5386 1.003105  2.995215E-6
330 17.6733 0.992005 -7.760684E-6
331 5.5574 1.029571  2.887820E-5
332 7.0098 1.038553  3.787686E-5
333 6.8951 0.996923 -3.040967E-6
334 -19.0948 1.007930  7.885803E-6
335 19.0492 1.005444  5.445943E-6
336 5.9014 1.016537  1.664221E-5
337 -19.7445 1.001418  1.435297E-6
338 7.9653 1.000027  2.741216E-8
339 9.4177 1.024892  2.550150E-5
340 8.0799 1.007566  7.797421E-6
341 8.5004 0.995014 -5.169125E-6
342 18.7434 1.013531  1.411043E-5
343 9.8763 1.008086  8.481824E-6
344 -2.0867 1.023163  2.444012E-5
345 -19.2859 0.997651 -2.492924E-6
346 7.6595 1.015355  1.639277E-5
347 18.6670 1.020413  2.191985E-5
348 18.2466 1.019153  2.068707E-5
349 16.2973 1.007164  7.782698E-6
350 -14.8141 1.041067  4.487253E-5
351 -1.5898 1.023298  2.560386E-5
352 16.7560 1.003727  4.119090E-6
353 -18.0246 1.024330  2.704833E-5
354 7.2773 1.023276  2.602519E-5
355 -17.9864 1.025413  2.857759E-5
356 18.7434 1.001969  2.226620E-6
357 -18.8655 1.024454  2.781372E-5
358 -6.4438 1.007414  8.480331E-6
359 7.8506 1.019326  2.223259E-5
360 9.4559 0.985138 -1.719376E-5
361 17.2528 1.035499  4.130154E-5
362 17.8644 1.041116  4.810736E-5
363 6.0543 1.020561  2.419207E-5
364 8.1182 1.005773  6.830842E-6
365 7.2773 1.002263  2.692700E-6
366 9.5323 0.982366 -2.109972E-5
367 14.4245 1.003429  4.126098E-6
368 8.7679 1.021768  2.633675E-5
369 7.5831 1.026605  3.236890E-5
370 -18.8655 0.999065 -1.143732E-6
371 -19.2859 1.017327  2.131509E-5
372 10.4878 0.986507 -1.669010E-5
373 11.0993 1.012645  1.572729E-5
374 7.5831 1.009843  1.230892E-5
375 -0.0610 1.013659  1.717480E-5
376 18.5141 1.012359  1.562512E-5
377 -15.7696 1.001543  1.961709E-6
378 -14.1261 1.027685  3.538549E-5
379 -18.1011 1.000317  4.076525E-7
380 17.3675 1.003238  4.183589E-6
381 7.4302 1.020191  2.622905E-5
382 -19.0566 0.990932 -1.184394E-5
383 -14.8523 1.017361  2.279693E-5
384 18.6288 1.011787  1.556046E-5
385 -13.4764 1.013287  1.763450E-5
386 -0.0992 1.033490  4.468686E-5
387 18.3612 1.040697  5.459389E-5
388 -14.8905 1.020091  2.709508E-5
389 -11.7947 0.997503 -3.385358E-6
390 -16.6105 0.995576 -6.029575E-6
391 8.0799 1.029478  4.039150E-5
392 17.3675 1.010355  1.426400E-5
393 -19.5152 1.020085  2.781203E-5
394 -16.2665 0.984021 -2.224281E-5
395 19.0874 1.004114  5.756685E-6
396 6.8569 1.014467  2.034976E-5
397 4.5637 1.005702  8.062925E-6
398 6.2836 1.018798  2.671847E-5
399 7.9271 1.010573  1.510612E-5
400 13.4690 1.022763  3.269171E-5
401 9.6088 0.989912 -1.456293E-5
402 8.7679 1.011467  1.663937E-5
403 8.5004 0.998463 -2.241376E-6
404 -4.3035 1.016177  2.371799E-5
405 11.2905 1.017834  2.628128E-5
406 16.8324 1.006381  9.451628E-6
407 -18.4833 1.015627  2.326606E-5
408 -19.1330 1.036790  5.505336E-5
409 -9.3486 0.999142 -1.290366E-6
410 -19.7828 0.985839 -2.140753E-5
411 -19.5534 1.014341  2.178979E-5
412 6.6658 1.010030  1.531619E-5
413 7.6595 0.999275 -1.112758E-6
414 2.1940 1.003764  5.806329E-6
415 8.1946 0.997359 -4.095025E-6
416 -19.7445 0.999980 -3.043449E-8
417 -13.2471 0.998252 -2.737110E-6
418 -8.6606 1.023771  3.741076E-5
419 -17.8335 1.019004  3.005831E-5
420 -19.2859 1.011102  1.764676E-5
421 5.7103 1.015488  2.474131E-5
422 -16.8016 1.019644  3.153591E-5
423 -2.2014 1.002983  4.812191E-6
424 18.2848 1.037497  6.079524E-5
425 -17.5660 1.019431  3.165976E-5
426 10.1056 1.006676  1.093045E-5
427 19.0492 1.010644  1.751444E-5
428 5.3663 1.016908  2.795727E-5
429 10.4878 1.001190  1.977933E-6
430 -3.6920 1.029213  4.877773E-5
431 8.3475 1.033964  5.698723E-5
432 8.6532 1.024077  4.059532E-5
433 -19.8210 0.996198 -6.441876E-6
434 15.7240 1.030835  5.249612E-5
435 7.2391 1.030526  5.222024E-5
436 -16.9162 1.004565  7.847909E-6
437 18.1701 0.995358 -8.017298E-6
438 -2.9658 1.010932  1.897354E-5
439 18.5523 0.996518 -6.071874E-6
440 8.1182 1.004862  8.519716E-6
441 5.5192 1.030360  5.345319E-5
442 9.4177 1.019409  3.433684E-5
443 9.1501 1.014611  2.597051E-5
444 8.3475 1.004750  8.482833E-6
445 7.6213 0.997334 -4.783710E-6
446 -3.2715 0.984303 -2.830129E-5
447 8.7297 1.020221  3.663072E-5
448 -17.4895 1.019326  3.517511E-5
449 -4.4564 0.989943 -1.839085E-5
450 8.3475 1.026528  4.873750E-5
451 8.5386 1.006695  1.235755E-5
452 18.7817 0.984107 -2.947355E-5
453 10.2585 1.020420  3.804736E-5
454 14.8067 1.013625  2.550548E-5
455 8.6150 1.025056  4.712111E-5
456 8.7679 1.011128  2.102518E-5
457 16.1827 1.020579  3.906175E-5
458 10.1821 0.994437 -1.060861E-5
459 -16.5722 0.992864 -1.367141E-5
460 7.5448 0.998741 -2.422253E-6
461 8.0417 1.002713  5.245081E-6
462 9.5323 1.000697  1.354136E-6
463 -8.2402 1.012046  2.350655E-5
464 -2.3542 1.008887  1.742135E-5
465 7.6595 0.996838 -6.226090E-6
466 -19.2095 1.044859  8.874208E-5
467 8.6532 1.003799  7.549139E-6
468 -13.8968 1.007540  1.505157E-5
469 8.5386 1.012362  2.478976E-5
470 -3.9977 0.998060 -3.907063E-6
471 9.5705 1.009248  1.871395E-5
472 -19.9739 1.031046  6.310849E-5
473 7.8888 0.993981 -1.228970E-5
474 -16.9162 1.023077  4.733271E-5
475 -12.4827 1.006664  1.372949E-5
476 8.2328 1.016796  3.475966E-5
477 -15.4638 1.019992  4.155905E-5
478 9.3030 1.017980  3.754534E-5
479 7.5831 1.029249  6.134891E-5
480 8.6915 1.005001  1.053688E-5
481 -17.4513 0.994083 -1.252040E-5
482 -16.9544 1.013707  2.913413E-5
483 9.4177 1.028854  6.160118E-5
484 -17.9100 1.019793  4.244522E-5
485 -19.7063 1.018774  4.043640E-5
486 8.6150 1.027870  6.029385E-5
487 -12.6355 0.998496 -3.268364E-6
488 10.9465 1.025210  5.501900E-5
489 5.5956 0.995635 -9.567874E-6
490 8.5768 1.033210  7.311560E-5
491 -16.7633 1.005219  1.153973E-5
492 -18.0628 1.022890  5.083484E-5
493 -4.6092 1.007999  1.784205E-5
494 7.3920 1.017756  3.977661E-5
495 4.9076 1.040897  9.201603E-5
496 9.2265 1.040363  9.120782E-5
497 -1.6663 1.005945  1.349238E-5
498 7.9653 1.007746  1.765424E-5
499 -3.2715 1.022735  5.204360E-5
500 6.5129 1.007537  1.732778E-5
501 6.2836 0.991851 -1.881537E-5
502 -19.9739 0.999220 -1.807491E-6
503 8.2710 1.003334  7.762849E-6
504 7.3920 1.027559  6.445089E-5
505 -19.5917 1.015332  3.600965E-5
506 2.3087 1.015353  3.621060E-5
507 8.6532 1.034209  8.102923E-5
508 -16.5340 1.016864  4.011296E-5
509 -14.6230 1.002340  5.590419E-6
510 -17.2220 1.004211  1.010233E-5
511 -18.5979 1.010993  2.648113E-5
512 8.1564 1.020954  5.069218E-5
513 -17.0691 1.020484  4.976269E-5
514 -19.4770 0.999244 -1.844595E-6
515 18.7052 1.018894  4.628642E-5
516 -18.0628 1.005806  1.428186E-5
517 8.3093 1.024850  6.138898E-5
518 7.9653 0.981567 -4.572471E-5
519 -18.6744 1.015378  3.830757E-5
520 -11.6036 0.992665 -1.834712E-5
521 -15.4638 1.003151  7.913440E-6
522 -16.3811 0.995768 -1.067272E-5
523 -1.5898 1.002950  7.471572E-6
524 -17.1073 1.029845  7.589787E-5
525 14.8832 1.017198  4.391665E-5
526 9.4559 1.007486  1.919593E-5
527 9.6470 1.003423  8.814055E-6
528 -6.2145 1.011299  2.921100E-5
529 -16.7251 1.033019  8.571238E-5
530 -19.4006 1.037643  9.811534E-5
531 4.8312 1.013040  3.412653E-5
532 -14.9670 1.018633  4.896368E-5
533 -6.9789 1.001472  3.883225E-6
534 18.7434 0.996099 -1.033355E-5
535 -18.1775 1.006368  1.693918E-5
536 7.0480 0.995746 -1.136158E-5
537 7.0098 1.021918  5.877477E-5
538 -19.7445 1.001468  3.951190E-6
539 16.2209 1.000072  1.947419E-7
540 7.7360 1.027094  7.353818E-5
541 9.2648 1.009081  2.474584E-5
542 -6.5203 1.009026  2.469457E-5
543 -9.1575 1.012464  3.423980E-5
544 9.2265 1.017800  4.909392E-5
545 8.7679 1.021635  5.990786E-5
546 8.0799 1.051322  1.426815E-4
547 17.4822 1.027844  7.771870E-5
548 13.8130 1.009445  2.646839E-5
549 -11.4889 1.011440  3.218532E-5
550 -11.3360 1.008812  2.489143E-5
551 6.2071 1.011461  3.250238E-5
552 6.8951 1.005292  1.506540E-5
553 8.8826 1.018318  5.235889E-5
554 -2.6218 1.012327  3.537265E-5
555 -4.4946 0.993875 -1.764577E-5
 2.268347  91.00  90.00 -0.00 0.09
  0 -0.2521 0.808713 -1.077039E-5 
  1 -1.1312 0.813066 -1.053234E-5 
  2 -2.2396 1.109835  6.194165E-6 
  3 -1.0165 1.048234  2.723357E-6 
  4 0.0919 1.020252  1.145098E-6 
  5 -0.0992 1.023708  1.342796E-6 
  6 16.4120 1.030799  1.747848E-6 
  7 -0.9783 1.031365  1.783895E-6 
  8 -9.8072 1.040990  2.337034E-6 
  9 -1.3605 1.038864  2.221805E-6 
 10 -19.4006 1.025288  1.449987E-6 
 11 -0.8636 1.025800  1.484064E-6 
 12 -1.3605 1.048230  2.783822E-6 
 13 -0.9783 1.028416  1.646196E-6 
 14 -0.2139 1.034618  2.013431E-6 
 15 -0.1757 1.042441  2.478701E-6 
 16 -0.8636 1.006527  3.828939E-7 
 17 -1.0930 1.037103  2.186561E-6 
 18 0.1301 1.032941  1.950734E-6 
 19 0.2830 1.051519  3.066462E-6 
 20 -0.2903 1.052428  3.137138E-6 
 21 1.0474 1.036157  2.175495E-6 
 22 -1.3605 1.024953  1.510056E-6 
 23 -16.1900 1.030122  1.833714E-6 
 24 0.2065 1.048111  2.946876E-6 
 25 -0.8636 1.040828  2.516756E-6 
 26 0.4741 1.020312  1.260319E-6 
 27 -1.3987 1.029188  1.823353E-6 
 28 -0.0228 1.036596  2.302108E-6 
 29 -0.1375 1.017811  1.128429E-6 
 30 18.0937 1.021573  1.376807E-6 
 31 -1.2841 1.016820  1.081545E-6 
 32 1.0092 1.044019  2.852376E-6 
 33 -0.2139 1.032402  2.116170E-6 
 34 2.3469 1.020360  1.340437E-6 
 35 18.3230 1.047274  3.137924E-6 
 36 -1.3223 1.029851  1.998012E-6 
 37 -0.3286 1.041009  2.768320E-6 
 38 -1.6663 1.041327  2.813966E-6 
 39 0.4358 1.012319  8.462155E-7 
 40 0.2065 1.038407  2.662011E-6 
 41 -0.4050 1.034519  2.414325E-6 
 42 -0.4050 1.040284  2.843588E-6 
 43 -0.3286 1.039601  2.821654E-6 
 44 -0.4432 1.027517  1.979323E-6 
 45 0.4358 1.046629  3.386314E-6 
 46 -0.5197 1.053516  3.924436E-6 
 47 -0.8254 1.035877  2.656893E-6 
 48 -1.7045 1.038243  2.860361E-6 
 49 0.0154 1.031639  2.390330E-6 
 50 -0.0992 1.041211  3.145181E-6 
 51 18.2848 1.017887  1.379152E-6 
 52 1.0856 1.060820  4.738226E-6 
 53 -19.8210 1.008094  6.371832E-7 
 54 -18.6744 1.044853  3.568181E-6 
 55 18.2848 1.021479  1.726897E-6 
 56 -19.4770 1.034516  2.804872E-6 
 57 1.9264 0.986715 -1.091255E-6 
 58 18.0555 1.001956  1.623771E-7 
 59 18.0172 1.025247  2.119339E-6 
 60 -1.7809 1.031585  2.680559E-6 
 61 1.3531 1.009498  8.150176E-7 
 62 -0.1375 1.054934  4.766391E-6 
 63 16.9471 0.993304 -5.874609E-7 
 64 17.2528 1.000606  5.376560E-8 
 65 15.9533 1.006054  5.431781E-7 
 66 2.0793 1.032537  2.952633E-6 
 67 -19.8592 1.014727  1.351677E-6 
 68 -19.7828 1.033766  3.134567E-6 
 69 15.3036 1.031908  2.996105E-6 
 70 18.5523 0.995241 -4.520015E-7 
 71 -1.4752 1.015597  1.498538E-6 
 72 17.4439 1.031910  3.101259E-6 
 73 -12.4062 0.988850 -1.096253E-6 
 74 -1.5516 1.037108  3.690858E-6 
 75 11.0229 1.023106  2.325018E-6 
 76 -19.5917 1.004274  4.350530E-7 
 77 -10.1512 1.014675  1.511375E-6 
 78 17.6350 1.040189  4.187768E-6 
 79 0.3976 1.012280  1.294628E-6 
 80 16.4884 1.031574  3.367912E-6 
 81 -1.7809 1.029393  3.172115E-6 
 82 15.9151 0.988100 -1.299366E-6 
 83 0.4741 1.023915  2.642239E-6 
 84 -1.0165 1.028592  3.196189E-6 
 85 -3.2333 1.013930  1.575588E-6 
 86 -1.1694 1.005754  6.584848E-7 
 87 18.4759 1.024154  2.796930E-6 
 88 16.6413 1.020217  2.368718E-6 
 89 9.2648 1.016666  1.975809E-6 
 90 -17.4513 1.034058  4.085305E-6 
 91 15.8769 0.995723 -5.190779E-7 
 92 2.3469 1.017706  2.174297E-6 
 93 -0.7108 1.036829  4.575996E-6 
 94 17.7115 1.004292  5.396368E-7 
 95 -7.2082 1.037631  4.786580E-6 
 96 12.7810 1.002333  3.003008E-7 
 97 -1.0930 1.015366  2.000856E-6 
 98 18.4377 1.020612  2.715434E-6 
 99 18.8581 1.030043  4.004446E-6 
100 18.0937 0.996545 -4.659733E-7 
101 -10.7627 1.005945  8.111249E-7 
102 17.9790 1.023394  3.229015E-6 
103 18.8199 0.979106 -2.917640E-6 
104 18.1701 1.033925  4.792625E-6 
105 -3.8831 0.989353 -1.521689E-6 
106 17.9790 0.999804 -2.839499E-8 
107 -3.5773 1.003232  4.726990E-7 
108 -19.4388 1.008374  1.238923E-6 
109 16.9471 1.017270  2.584620E-6 
110 -2.9658 1.021431  3.244493E-6 
111 -0.5197 1.035209  5.391789E-6 
112 -8.6224 1.023574  3.651598E-6 
113 4.1432 1.012023  1.883711E-6 
114 -15.8843 1.011194  1.773963E-6 
115 -1.7427 1.014625  2.344084E-6 
116 -9.0046 1.005612  9.096735E-7 
117 0.0536 1.000471  7.716985E-8 
118 17.7497 1.011040  1.830594E-6 
119 -9.9601 1.010021  1.680480E-6 
120 18.0555 1.016445  2.788803E-6 
121 -0.0228 1.000356  6.103697E-8 
122 18.2083 1.030149  5.228627E-6 
123 18.2848 1.002907  5.098452E-7 
124 -18.6361 1.019830  3.516498E-6 
125 1.5825 0.992341 -1.373393E-6 
126 0.3212 0.993848 -1.115322E-6 
127 10.8318 1.011526  2.112926E-6 
128 -16.6869 1.010411  1.929541E-6 
129 -18.5597 1.005221  9.783373E-7 
130 -19.8974 1.030253  5.731539E-6 
131 17.4057 1.002987  5.721394E-7 
132 18.3995 1.006773  1.311511E-6 
133 2.9966 1.019233  3.764758E-6 
134 -3.6155 1.035095  6.944525E-6 
135 -13.3999 1.019815  3.963489E-6 
136 -11.5271 0.998129 -3.782736E-7 
137 18.4377 1.032288  6.598652E-6 
138 -1.3605 1.011290  2.332226E-6 
139 18.9345 1.030032  6.270310E-6 
140 -19.5917 1.028663  6.048360E-6 
141 17.7879 1.008616  1.837429E-6 
142 -0.0992 1.026239  5.655456E-6 
143 -3.0804 1.019615  4.272609E-6 
144 16.6795 1.020840  4.587319E-6 
145 -11.8329 1.022877  5.088942E-6 
146 0.1683 1.006578  1.478664E-6 
147 17.2911 1.021504  4.884377E-6 
148 -11.5271 1.021006  4.821084E-6 
149 9.1883 1.023367  5.418688E-6 
150 16.9853 1.010810  2.532891E-6 
151 -19.8592 1.010295  2.437130E-6 
152 18.5523 1.010473  2.504800E-6 
153 10.6789 1.010466  2.528890E-6 
154 17.1764 1.019795  4.831918E-6 
155 -18.7508 1.015319  3.777533E-6 
156 -2.3160 0.975400 -6.127728E-6 
157 -3.2715 1.016485  4.148113E-6 
158 2.0029 1.022188  5.639671E-6 
159 -19.5534 1.005552  1.425419E-6 
160 -18.9419 1.010568  2.740480E-6 
161 -19.5534 1.004078  1.068145E-6 
162 -19.9356 1.018353  4.854969E-6 
163 -1.5134 0.990831 -2.449700E-6 
164 -10.8392 1.005800  1.564800E-6 
165 18.8581 1.024245  6.606373E-6 
166 17.9408 1.011518  3.169489E-6 
167 -0.0992 1.037072  1.030116E-5 
168 19.0492 1.005631  1.580075E-6 
169 5.7867 1.021882  6.199820E-6 
170 19.0110 1.012762  3.651083E-6 
171 16.9853 0.997808 -6.332349E-7 
172 -19.5917 1.007356  2.145355E-6 
173 -2.1631 1.013010  3.831127E-6 
174 17.6350 1.025262  7.510372E-6 
175 18.1701 1.024381  7.317723E-6 
176 10.4496 1.014689  4.450929E-6 
177 5.8632 1.016022  4.900755E-6 
178 -13.0942 1.007692  2.375215E-6 
179 -1.0165 1.030461  9.494759E-6 
180 0.9327 1.018175  5.718489E-6 
181 17.8644 0.993073 -2.199840E-6 
182 0.5505 1.024878  7.974998E-6 
183 16.8324 0.980453 -6.324360E-6 
184 5.0987 0.995326 -1.526460E-6 
185 -19.8974 1.011018  3.631320E-6 
186 17.0235 1.017672  5.878232E-6 
187 6.1307 0.982653 -5.823131E-6 
188 -11.2978 1.040621  1.376134E-5 
189 18.8581 1.002494  8.524961E-7 
190 17.6733 1.012413  4.282151E-6 
191 18.8581 1.017286  6.017756E-6 
192 -3.3862 0.995820 -1.468224E-6 
193 -1.5134 1.025122  8.904323E-6 
194 -0.5961 1.016641  5.951245E-6 
195 -1.3987 1.024531  8.851609E-6 
196 -2.7747 1.030820  1.122044E-5 
197 17.1000 0.986361 -5.009727E-6 
198 -1.9720 1.024719  9.160334E-6 
199 19.0110 0.995576 -1.654034E-6 
200 18.5906 0.996118 -1.464094E-6 
201 16.8324 1.002074  7.892609E-7 
202 -0.5961 1.016297  6.254693E-6 
203 -14.8523 1.018648  7.219903E-6 
204 17.3675 1.010551  4.120454E-6 
205 15.1125 1.025195  9.924807E-6 
206 15.9533 1.006052  2.404495E-6 
207 16.8706 1.021626  8.666943E-6 
208 -2.0867 1.024316  9.828595E-6 
209 17.7497 1.031446  1.281987E-5 
210 -3.2333 1.045487  1.870230E-5 
211 -17.9482 1.018310  7.592530E-6 
212 0.5887 0.992206 -3.259274E-6 
213 -2.1249 1.002298  9.693138E-7 
214 18.6288 1.037279  1.585392E-5 
215 -4.1888 0.998626 -5.891779E-7 
216 -1.9720 1.014215  6.147519E-6 
217 11.3287 1.025688  1.120183E-5 
218 -11.6036 1.040704  1.789785E-5 
219 -0.2139 1.018761  8.317680E-6 
220 -2.4307 0.998558 -6.445417E-7 
221 11.2522 1.016743  7.546382E-6 
222 -1.8956 1.012186  5.537561E-6 
223 18.5523 1.044563  2.041671E-5 
224 11.8638 1.004717  2.178901E-6 
225 17.6733 1.009706  4.519855E-6 
226 -13.5146 0.981306 -8.775784E-6 
227 -3.1187 1.010700  5.063833E-6 
228 18.1701 0.999843 -7.489720E-8 
229 5.5192 1.010340  4.972639E-6 
230 17.2911 1.036718  1.780022E-5 
231 16.7942 1.007823  3.822794E-6 
232 19.0492 1.014617  7.199877E-6 
233 18.9345 0.995720 -2.124661E-6 
234 -6.0998 1.020829  1.042295E-5 
235 18.8581 1.011378  5.738700E-6 
236 17.8644 0.999844 -7.936721E-8 
237 -12.7502 1.013414  6.872387E-6 
238 18.2848 1.004500  2.323788E-6 
239 -10.8774 1.023151  1.204712E-5 
240 18.2848 1.017802  9.335911E-6 
241 -7.1700 0.987112 -6.811268E-6 
242 19.0110 1.029057  1.547538E-5 
243 -9.0428 1.017264  9.265514E-6 
244 -2.3542 1.014111  7.631504E-6 
245 18.2848 1.030044  1.637345E-5 
246 2.8437 1.003656  2.007500E-6 
247 0.3594 1.014978  8.287818E-6 
248 -0.7490 1.009874  5.505028E-6 
249 -13.3235 0.990947 -5.085422E-6 
250 8.7679 1.027383  1.549886E-5 
251 18.0172 1.018594  1.060395E-5 
252 0.5887 1.022776  1.308588E-5 
253 18.9728 1.033549  1.942034E-5 
254 0.2830 1.023356  1.362063E-5 
255 -9.1193 1.006790  3.989036E-6 
256 -14.5083 1.036282  2.147502E-5 
257 17.8261 1.003688  2.199199E-6 
258 17.1764 1.025159  1.511252E-5 
259 0.8181 0.991161 -5.348411E-6 
260 3.7610 1.026303  1.603262E-5 
261 -18.1775 1.005373  3.298855E-6 
262 17.4439 1.025852  1.598876E-5 
263 -19.7445 1.016298  1.015334E-5 
264 -0.3286 1.040224  2.524031E-5 
265 -3.0804 1.035593  2.249602E-5 
266 16.4884 1.003509  2.233544E-6 
267 17.3293 1.025604  1.641644E-5 
268 17.2911 0.994669 -3.442561E-6 
269 7.3537 1.048832  3.175984E-5 
270 -2.3160 1.023755  1.556023E-5 
271 18.8199 1.010614  7.001841E-6 
272 -4.6475 1.000101  6.680730E-8 
273 -5.9852 1.026949  1.803101E-5 
274 -19.4770 1.024680  1.662950E-5 
275 3.0731 1.024301  1.648909E-5 
276 0.0919 1.025766  1.760551E-5 
277 -19.8210 1.030851  2.122787E-5 
278 -2.2778 1.011574  8.019320E-6 
279 -1.7045 1.023296  1.625333E-5 
280 -11.1067 0.982712 -1.214517E-5 
281 -6.0234 1.017119  1.210954E-5 
282 -1.3987 0.996569 -2.443561E-6 
283 -1.7045 1.013631  9.775894E-6 
284 -3.8448 0.996124 -2.798976E-6 
285 -0.4432 1.018210  1.323878E-5 
286 18.6288 0.990286 -7.110265E-6 
287 -19.8974 0.997938 -1.519366E-6 
288 -10.6481 0.998033 -1.459744E-6 
289 16.4502 1.021280  1.589607E-5 
290 16.8324 1.023244  1.747998E-5 
291 15.7622 0.982367 -1.334986E-5 
292 15.6858 1.013219  1.007535E-5 
293 -9.4250 1.011266  8.643817E-6 
294 0.3594 1.004626  3.572887E-6 
295 16.4884 1.005986  4.654391E-6 
296 -17.8717 1.021731  1.700882E-5 
297 16.3355 1.022103  1.741515E-5 
298 0.8563 0.994487 -4.372323E-6 
299 -1.9338 1.017924  1.430939E-5 
300 17.9026 1.022887  1.839120E-5 
301 14.8450 1.028072  2.270549E-5 
302 18.4377 1.017975  1.463372E-5 
303 15.9916 1.019858  1.627258E-5 
304 16.6413 1.015808  1.303807E-5 
305 14.9596 1.009991  8.293606E-6 
306 18.0937 1.035018  2.925712E-5 
307 14.3099 1.013635  1.146518E-5 
308 18.4377 1.003502  2.963752E-6 
309 4.5254 0.979469 -1.748694E-5 
310 -13.4382 1.003196  2.739459E-6 
311 -7.3993 0.981054 -1.634375E-5 
312 17.4439 0.994369 -4.888606E-6 
313 -2.5071 1.019360  1.691395E-5 
314 17.3675 1.006750  5.935021E-6 
315 19.1256 0.982044 -1.588669E-5 
316 -19.7828 0.991466 -7.598313E-6 
317 -1.4370 1.000205  1.839242E-7 
318 18.5523 1.006011  5.419435E-6 
319 -18.8655 1.034545  3.133968E-5 
320 18.7434 1.025466  2.324676E-5 
321 16.7942 1.031677  2.909690E-5 
322 18.9345 1.020889  1.930706E-5 
323 -4.1124 1.008156  7.584998E-6 
324 -19.7828 1.044993  4.210106E-5 
325 18.3612 1.012755  1.200883E-5 
326 0.0919 1.018020  1.706968E-5 
327 18.4377 1.007298  6.955820E-6 
328 -2.8129 0.999837 -1.561957E-7 
329 18.5141 0.998294 -1.646014E-6 
330 -2.0867 1.035358  3.432041E-5 
331 15.3036 0.990433 -9.342418E-6 
332 15.5711 1.016125  1.584272E-5 
333 -19.6681 1.017686  1.748139E-5 
334 -2.0103 0.996876 -3.106359E-6 
335 -19.4388 0.979359 -2.064848E-5 
336 0.7416 1.007563  7.610787E-6 
337 18.1701 1.021753  2.202207E-5 
338 17.8644 1.012994  1.323348E-5 
339 17.5204 1.018538  1.899160E-5 
340 2.2322 1.020548  2.117612E-5 
341 -18.8655 1.012143  1.258879E-5 
342 1.0092 1.021485  2.240553E-5 
343 -11.0685 1.044977  4.718039E-5 
344 18.5523 1.013488  1.423233E-5 
345 -8.8517 1.023027  2.444012E-5 
346 -1.5516 1.012794  1.365807E-5 
347 16.9471 1.014352  1.541120E-5 
348 -0.2139 1.004331  4.678242E-6 
349 17.3675 1.021371  2.321648E-5 
350 -2.5071 1.032567  3.558486E-5 
351 -16.3429 1.003280  3.604788E-6 
352 -18.7508 1.007697  8.507591E-6 
353 16.2209 1.001439  1.600210E-6 
354 16.0298 1.013197  1.475523E-5 
355 17.9026 1.005057  5.686369E-6 
356 -18.9037 1.015212  1.720457E-5 
357 17.2911 1.023111  2.628643E-5 
358 -2.1631 1.014990  1.714661E-5 
359 18.0172 1.022818  2.625002E-5 
360 -7.8580 0.993977 -6.968604E-6 
361 0.3976 1.006716  7.813957E-6 
362 18.5906 1.027336  3.198415E-5 
363 18.7817 1.006100  7.177193E-6 
364 18.2083 1.021881  2.589006E-5 
365 -4.4181 1.014786  1.759317E-5 
366 8.8826 1.015942  1.907477E-5 
367 17.2528 1.004016  4.832354E-6 
368 -19.8210 1.028948  3.502410E-5 
369 2.5762 1.000891  1.084261E-6 
370 18.1701 1.009578  1.171723E-5 
371 -12.2533 1.017780  2.187194E-5 
372 2.4998 1.012732  1.574857E-5 
373 -19.6299 1.024890  3.095711E-5 
374 16.9853 1.039824  4.980285E-5 
375 18.7434 1.015589  1.960237E-5 
376 17.3293 1.002851  3.605199E-6 
377 18.5141 0.983418 -2.107955E-5 
378 -17.9482 1.005086  6.500996E-6 
379 18.5906 0.999095 -1.162863E-6 
380 0.9709 0.983774 -2.096518E-5 
381 17.0617 1.016719  2.171883E-5 
382 18.8581 0.997294 -3.534285E-6 
383 -0.9019 1.012878  1.691059E-5 
384 -3.3098 0.990350 -1.273918E-5 
385 -17.9100 1.020355  2.701603E-5 
386 15.8769 1.016477  2.198622E-5 
387 18.1319 1.030191  4.050054E-5 
388 -1.7045 1.006299  8.494920E-6 
389 -19.4006 1.002991  4.055781E-6 
390 18.8199 1.004679  6.378007E-6 
391 9.0354 1.035827  4.909072E-5 
392 18.2848 1.026505  3.650948E-5 
393 -0.3286 1.032510  4.501745E-5 
394 -5.9087 1.015882  2.210733E-5 
395 16.3738 1.011913  1.667067E-5 
396 1.3531 1.023557  3.313681E-5 
397 -9.3486 1.018866  2.667689E-5 
398 -19.7063 1.021955  3.120676E-5 
399 17.4057 1.006517  9.311748E-6 
400 17.2146 0.988204 -1.694083E-5 
401 -19.5152 0.992357 -1.103383E-5 
402 17.4439 1.027664  4.014322E-5 
403 3.5699 1.031196  4.550311E-5 
404 18.5141 1.023328  3.420142E-5 
405 17.3293 1.017830  2.627511E-5 
406 16.2973 0.999962 -5.592217E-8 
407 18.4377 1.013841  2.060607E-5 
408 18.4759 1.031563  4.723176E-5 
409 -1.6281 1.023725  3.568316E-5 
410 18.2083 1.018345  2.773276E-5 
411 0.1683 1.008558  1.300290E-5 
412 -2.3160 1.000503  7.681921E-7 
413 -18.3304 1.024676  3.787256E-5 
414 6.0925 1.029750  4.589174E-5 
415 -19.6299 1.029257  4.535882E-5 
416 0.8945 1.000556  8.664013E-7 
417 18.0937 1.015291  2.394458E-5 
418 -3.9213 1.024825  3.906970E-5 
419 8.5386 0.999747 -4.005989E-7 
420 13.3161 1.015698  2.495227E-5 
421 0.8563 1.042980  6.865840E-5 
422 17.7115 1.006740  1.082021E-5 
423 -8.9664 1.008007  1.291853E-5 
424 17.4439 0.982813 -2.786575E-5 
425 -2.6600 1.030020  4.891344E-5 
426 -18.9419 1.004189  6.859625E-6 
427 15.5329 1.018195  2.993865E-5 
428 -11.7182 1.011540  1.908162E-5 
429 18.8963 0.977144 -3.797793E-5 
430 -18.4833 1.039230  6.550381E-5 
431 -11.9093 1.034011  5.706584E-5 
432 18.1701 1.027327  4.607520E-5 
433 17.5204 1.015537  2.632370E-5 
434 -3.2333 1.037140  6.322908E-5 
435 17.5968 0.990243 -1.669202E-5 
436 -19.9739 1.013461  2.313990E-5 
437 -19.8974 0.998569 -2.471267E-6 
438 0.7034 1.010740  1.863983E-5 
439 14.5774 1.013199  2.301805E-5 
440 16.7942 1.041901  7.342199E-5 
441 18.0172 1.023617  4.158107E-5 
442 17.9790 1.002069  3.659779E-6 
443 17.3675 1.015679  2.786971E-5 
444 18.7817 1.022705  4.055086E-5 
445 -0.0228 1.005438  9.757436E-6 
446 -1.2458 1.013332  2.403643E-5 
447 -19.7445 1.005431  9.837510E-6 
448 17.2911 1.011731  2.135180E-5 
449 -2.4689 1.035108  6.420024E-5 
450 -19.0948 1.034793  6.392365E-5 
451 -0.2139 1.023524  4.342159E-5 
452 18.3230 1.007618  1.412814E-5 
453 -1.1312 1.004691  8.740476E-6 
454 14.2716 0.979938 -3.755355E-5 
455 13.8130 1.050137  9.428913E-5 
456 17.5204 1.008397  1.586429E-5 
457 16.4502 1.026289  4.990014E-5 
458 -19.7063 1.013182  2.513737E-5 
459 13.4690 0.988285 -2.244271E-5 
460 -18.8655 1.013266  2.553135E-5 
461 16.3355 1.007139  1.380352E-5 
462 18.5141 1.019287  3.746225E-5 
463 17.3293 1.008687  1.695068E-5 
464 -17.3367 1.008606  1.686994E-5 
465 -19.8592 1.035175  6.926747E-5 
466 17.2146 1.023914  4.730680E-5 
467 17.2911 1.028395  5.642787E-5 
468 16.6413 1.020263  4.045114E-5 
469 18.9728 1.010633  2.132288E-5 
470 0.0154 1.009233  1.859971E-5 
471 2.5380 1.019349  3.915473E-5 
472 17.0235 1.008442  1.715988E-5 
473 -15.1581 0.999658 -6.974814E-7 
474 18.4759 1.013364  2.741011E-5 
475 16.6413 1.002907  5.990101E-6 
476 -19.7828 1.023124  4.785625E-5 
477 18.3995 1.023627  4.911597E-5 
478 18.5523 1.007711  1.610095E-5 
479 18.4759 1.038322  8.037771E-5 
480 17.4822 1.022116  4.659440E-5 
481 17.8644 1.026881  5.688383E-5 
482 18.7817 1.030978  6.584533E-5 
483 -19.7828 0.994260 -1.225472E-5 
484 18.7434 1.038204  8.192442E-5 
485 -19.6299 1.031851  6.860283E-5 
486 -17.6424 1.018665  4.037983E-5 
487 -9.2721 1.009764  2.121506E-5 
488 -11.2596 1.014026  3.061041E-5 
489 -0.5961 1.023642  5.182331E-5 
490 17.0235 1.025370  5.585405E-5 
491 13.2779 0.994723 -1.166879E-5 
492 13.1633 1.019542  4.340034E-5 
493 -19.1712 1.014775  3.295666E-5 
494 -1.3987 1.016404  3.674874E-5 
495 -19.5152 0.998332 -3.752108E-6 
496 1.7736 1.039460  8.916810E-5 
497 18.7052 1.010894  2.472315E-5 
498 -0.7872 1.027134  6.184526E-5 
499 -0.5579 1.027146  6.214064E-5 
500 14.7685 1.028940  6.653061E-5 
501 -19.8974 1.015419  3.559922E-5 
502 -17.2220 0.998538 -3.390850E-6 
503 1.4678 1.024235  5.643526E-5 
504 14.3863 1.037370  8.739432E-5 
505 18.5906 0.994923 -1.192325E-5 
506 18.3230 1.002186  5.156748E-6 
507 -1.6663 1.011473  2.717637E-5 
508 0.3594 1.052868  1.257566E-4 
509 15.4565 1.000138  3.295320E-7 
510 -0.9783 1.002231  5.351176E-6 
511 9.2265 1.009264  2.231737E-5 
512 10.4878 1.014574  3.525670E-5 
513 17.3293 0.998075 -4.675616E-6 
514 -19.9739 1.015065  3.675148E-5 
515 18.4377 1.002971  7.278952E-6 
516 -19.4770 1.033248  8.179178E-5 
517 1.3149 1.039177  9.678108E-5 
518 -10.9538 0.999103 -2.225232E-6 
519 -3.3862 1.013944  3.473539E-5 
520 -11.4507 1.020906  5.229459E-5 
521 8.3475 1.040888  1.027001E-4 
522 1.8500 1.006788  1.711984E-5 
523 -1.2841 1.028180  7.136946E-5 
524 16.8706 1.012920  3.285554E-5 
525 14.3481 1.005779  1.475601E-5 
526 18.3612 0.998408 -4.083009E-6 
527 -2.0485 1.021468  5.527184E-5 
528 -19.6299 1.026292  6.797098E-5 
529 18.0172 1.036074  9.364309E-5 
530 18.9345 1.017330  4.517041E-5 
531 -18.8655 1.038030  9.953009E-5 
532 14.8832 1.010750  2.824969E-5 
533 19.0110 0.987993 -3.168195E-5 
534 -2.4307 1.017779  4.710068E-5 
535 -0.7108 1.035592  9.467395E-5 
536 9.8763 1.015914  4.250311E-5 
537 -10.6481 1.033856  9.078943E-5 
538 10.8318 1.036513  9.830835E-5 
539 18.0172 1.013272  3.587889E-5 
540 -17.4131 1.030235  8.206313E-5 
541 0.8563 1.029500  8.039222E-5 
542 2.9584 1.007023  1.921435E-5 
543 6.1307 1.011726  3.221157E-5 
544 17.0235 1.027616  7.616713E-5 
545 15.4565 1.001663  4.603752E-6 
546 -3.0040 1.017312  4.813097E-5 
547 16.8706 1.027604  7.704943E-5 
548 -12.1769 1.015923  4.462096E-5 
549 0.6652 1.017377  4.888851E-5 
550 -1.7427 1.019909  5.623635E-5 
551 -2.8511 0.994419 -1.582777E-5 
552 10.3732 1.000782  2.227591E-6 
553 -17.6806 1.010817  3.091659E-5 
554 12.6282 0.999183 -2.345839E-6 
555 -1.3223 1.026355  7.592432E-5 
 2.502186  91.00  90.00 -0.00 0.09
  0 -0.4814 0.767237 -1.310567E-5 
  1 -1.5134 0.779082 -1.244709E-5 
  2 -7.6287 1.173812  9.802120E-6 
  3 -2.7747 1.036678  2.070914E-6 
  4 0.3976 1.036369  2.056440E-6 
  5 -1.7809 1.047939  2.715209E-6 
  6 -0.2521 1.017716  1.005387E-6 
  7 -0.9019 1.028769  1.636233E-6 
  8 -2.3160 1.039202  2.235091E-6 
  9 -1.8192 1.062460  3.570789E-6 
 10 12.2077 1.058788  3.370768E-6 
 11 0.0919 1.040441  2.326249E-6 
 12 -0.3668 1.031424  1.813806E-6 
 13 -1.2841 1.040089  2.322492E-6 
 14 -0.0610 1.049121  2.856933E-6 
 15 0.8563 1.031799  1.857155E-6 
 16 -0.4050 1.020442  1.199124E-6 
 17 -0.5961 1.017793  1.048613E-6 
 18 0.8945 1.048193  2.853959E-6 
 19 1.3531 1.029473  1.754255E-6 
 20 -0.2139 1.044151  2.641859E-6 
 21 -0.1375 1.032327  1.945106E-6 
 22 -1.9338 1.030797  1.863693E-6 
 23 -0.2521 1.050483  3.073185E-6 
 24 -0.8254 1.053852  3.298554E-6 
 25 -7.3611 1.025481  1.570731E-6 
 26 -1.9338 1.027183  1.686677E-6 
 27 0.8945 1.032179  2.010203E-6 
 28 -2.2014 1.012675  7.973020E-7 
 29 -2.3925 1.024907  1.578042E-6 
 30 -1.5516 1.047347  3.021753E-6 
 31 -2.0103 1.042500  2.732838E-6 
 32 -2.0867 1.048216  3.124316E-6 
 33 -1.2841 1.048868  3.191566E-6 
 34 -0.3286 1.036248  2.386399E-6 
 35 -0.2903 1.055595  3.690239E-6 
 36 -0.4814 1.053973  3.612588E-6 
 37 -1.0930 1.047540  3.209175E-6 
 38 -1.2076 1.044535  3.032404E-6 
 39 -0.0228 1.036549  2.510650E-6 
 40 10.1056 1.029595  2.051189E-6 
 41 -0.9401 1.019326  1.351669E-6 
 42 0.2065 1.016638  1.174496E-6 
 43 -0.3668 1.028617  2.039033E-6 
 44 -0.4050 1.043581  3.134754E-6 
 45 0.2447 1.058128  4.221402E-6 
 46 -0.5579 1.055350  4.058932E-6 
 47 -0.0610 1.043392  3.213444E-6 
 48 -1.1694 1.062501  4.674717E-6 
 49 -0.0992 1.038701  2.923826E-6 
 50 -0.6343 1.031594  2.411253E-6 
 51 -1.5134 1.038290  2.952300E-6 
 52 -8.9282 1.047320  3.686447E-6 
 53 -2.9658 1.021833  1.718750E-6 
 54 -10.6481 1.041229  3.279920E-6 
 55 -3.5391 1.008151  6.553637E-7 
 56 -4.9532 1.034736  2.822796E-6 
 57 16.4502 1.020603  1.692321E-6 
 58 -3.0422 1.016846  1.398835E-6 
 59 -1.4752 1.007891  6.624412E-7 
 60 -5.7176 1.033398  2.834452E-6 
 61 -0.7108 1.010416  8.937729E-7 
 62 -3.9977 1.035815  3.107478E-6 
 63 -5.4119 1.016998  1.491376E-6 
 64 10.6025 0.996473 -3.128933E-7 
 65 -3.5391 1.031055  2.786509E-6 
 66 -3.6155 1.022683  2.058410E-6 
 67 -2.9275 1.016545  1.518513E-6 
 68 -9.1575 1.018750  1.740603E-6 
 69 -2.8129 1.002734  2.567069E-7 
 70 -8.1637 1.012052  1.144662E-6 
 71 -10.2276 1.032869  3.157927E-6 
 72 -11.0685 1.029156  2.833652E-6 
 73 -2.5836 1.019472  1.914417E-6 
 74 -6.9025 1.038260  3.805474E-6 
 75 10.7171 1.035855  3.607829E-6 
 76 11.8638 1.022395  2.279787E-6 
 77 8.3857 1.020465  2.107719E-6 
 78 -4.1124 1.025484  2.655446E-6 
 79 -3.4244 1.013655  1.439602E-6 
 80 11.5580 1.049404  5.269719E-6 
 81 14.6156 1.024181  2.609699E-6 
 82 17.8644 0.998649 -1.474902E-7 
 83 15.8387 1.019227  2.124242E-6 
 84 -7.4376 1.018267  2.041972E-6 
 85 -2.5836 1.031907  3.608925E-6 
 86 -7.4376 1.001652  1.890413E-7 
 87 -7.2847 1.021163  2.450625E-6 
 88 -8.2784 1.013315  1.560041E-6 
 89 13.6601 0.995061 -5.854975E-7 
 90 10.2585 1.021345  2.560329E-6 
 91 -10.2659 1.026335  3.196240E-6 
 92 -9.4250 0.997915 -2.560418E-7 
 93 11.1376 1.040850  5.075703E-6 
 94 -6.4056 0.996408 -4.515682E-7 
 95 -3.7302 1.023512  2.990692E-6 
 96 -2.8511 0.983494 -2.124312E-6 
 97 -9.6161 1.024125  3.141377E-6 
 98 -8.2020 1.011362  1.496870E-6 
 99 10.5260 1.021581  2.876519E-6 
100 12.0931 1.010808  1.457463E-6 
101 -1.2841 1.019455  2.654358E-6 
102 -9.7308 1.032165  4.439728E-6 
103 -6.0234 1.010463  1.461138E-6 
104 -5.2972 1.037564  5.306666E-6 
105 -10.1894 0.994335 -8.096070E-7 
106 -3.8448 1.007209  1.042324E-6 
107 -9.6161 1.000655  9.578480E-8 
108 16.5649 1.021843  3.231651E-6 
109 10.8318 1.032744  4.900494E-6 
110 13.8894 1.018374  2.781689E-6 
111 -7.7051 1.003517  5.385053E-7 
112 12.3606 1.038702  5.994771E-6 
113 14.0423 1.022223  3.481770E-6 
114 -8.1637 0.995554 -7.044905E-7 
115 8.5768 1.033845  5.424681E-6 
116 -10.4188 1.002032  3.293874E-7 
117 -2.6218 1.027206  4.460415E-6 
118 14.3481 1.002928  4.854998E-7 
119 17.0617 1.011457  1.921237E-6 
120 11.9784 1.032977  5.592302E-6 
121 11.3287 1.015387  2.638747E-6 
122 9.1119 1.030039  5.209534E-6 
123 18.6288 0.992048 -1.394610E-6 
124 10.4114 1.019833  3.517071E-6 
125 13.9659 1.020725  3.716086E-6 
126 -14.0879 1.017245  3.126591E-6 
127 -6.6349 1.010325  1.892802E-6 
128 15.6858 0.986513 -2.499700E-6 
129 -0.3668 1.019218  3.601268E-6 
130 17.7115 1.008955  1.696516E-6 
131 7.0098 1.024132  4.622045E-6 
132 -6.4056 1.036998  7.163927E-6 
133 0.8945 1.052936  1.036191E-5 
134 -0.6343 1.022510  4.454071E-6 
135 12.3606 1.008711  1.742461E-6 
136 -6.7114 1.028019  5.665179E-6 
137 13.0486 1.033681  6.883454E-6 
138 15.7622 1.018070  3.732735E-6 
139 11.2522 1.017474  3.648338E-6 
140 4.0286 1.019450  4.104218E-6 
141 -0.6343 1.006750  1.439547E-6 
142 -3.9595 1.008540  1.840693E-6 
143 -0.3668 1.025982  5.659369E-6 
144 16.6031 1.030395  6.690702E-6 
145 -4.4564 1.021405  4.761347E-6 
146 -9.0046 1.034055  7.654817E-6 
147 -8.7753 1.003733  8.478905E-7 
148 -3.0422 1.041339  9.487415E-6 
149 -10.8392 1.024857  5.764177E-6 
150 -10.1512 1.021601  5.061154E-6 
151 -9.7308 1.018368  4.348024E-6 
152 9.8381 1.026852  6.421898E-6 
153 11.5198 1.019220  4.644017E-6 
154 -8.2020 1.016196  3.953375E-6 
155 9.3030 1.035711  8.806045E-6 
156 0.8181 0.999693 -7.635848E-8 
157 8.6532 1.031917  8.031080E-6 
158 -4.6475 1.016122  4.097661E-6 
159 -5.6030 1.026811  6.883336E-6 
160 -7.5904 1.029562  7.665948E-6 
161 8.3475 1.020090  5.261959E-6 
162 -9.9219 1.019812  5.240818E-6 
163 -9.2339 1.018361  4.905367E-6 
164 7.8506 1.017155  4.628734E-6 
165 13.8894 1.011843  3.226869E-6 
166 10.2967 1.024114  6.635374E-6 
167 -8.0109 1.034201  9.503450E-6 
168 -7.7051 1.006113  1.715308E-6 
169 15.0743 1.009459  2.680146E-6 
170 -7.1700 1.022162  6.340240E-6 
171 -2.9275 1.017002  4.911270E-6 
172 -8.6988 0.997356 -7.711264E-7 
173 10.0292 1.031677  9.327680E-6 
174 6.7422 1.031211  9.278753E-6 
175 -8.3931 1.018900  5.672734E-6 
176 12.8193 0.990057 -3.012860E-6 
177 16.0298 1.023872  7.302233E-6 
178 10.4114 1.032769  1.011866E-5 
179 -8.0873 1.013145  4.097213E-6 
180 15.2272 1.021217  6.675552E-6 
181 7.2773 1.000752  2.387388E-7 
182 -5.3737 0.999652 -1.114578E-7 
183 7.8124 1.015784  5.106863E-6 
184 -8.6606 0.976889 -7.547098E-6 
185 -10.2659 1.002850  9.393498E-7 
186 -7.0936 1.015299  5.089047E-6 
187 -9.1575 1.016875  5.664634E-6 
188 10.6407 1.005629  1.907100E-6 
189 11.7491 1.013180  4.505786E-6 
190 11.0611 1.020236  6.981058E-6 
191 13.5837 1.004491  1.563318E-6 
192 0.2065 1.009155  3.216015E-6 
193 -9.1957 1.032380  1.147701E-5 
194 17.7879 1.033305  1.191099E-5 
195 -4.4946 1.021925  7.911440E-6 
196 4.1815 0.993296 -2.440592E-6 
197 14.9978 1.012548  4.609167E-6 
198 14.2334 1.032307  1.197217E-5 
199 -12.0622 0.998292 -6.385772E-7 
200 -3.9213 1.018784  7.084604E-6 
201 13.6983 0.989783 -3.887128E-6 
202 16.4884 1.024982  9.588067E-6 
203 15.0743 1.022946  8.883691E-6 
204 -10.6481 1.039871  1.557095E-5 
205 -11.9093 1.001091  4.298581E-7 
206 -9.6161 0.994750 -2.085937E-6 
207 16.8706 1.033066  1.325164E-5 
208 -9.9219 1.023745  9.597763E-6 
209 -6.3292 0.982441 -7.158175E-6 
210 -4.1506 1.034935  1.436378E-5 
211 -10.1512 1.016451  6.821601E-6 
212 -6.2527 1.004881  2.041090E-6 
213 12.7428 1.012650  5.334986E-6 
214 -11.6800 1.004207  1.788994E-6 
215 10.4114 1.039504  1.694164E-5 
216 -8.9664 1.023713  1.025469E-5 
217 14.0805 0.984480 -6.767838E-6 
218 15.3036 1.034902  1.534650E-5 
219 -8.2402 1.015430  6.841023E-6 
220 14.0423 1.001111  4.966306E-7 
221 -7.6287 1.011944  5.383252E-6 
222 -7.9726 1.022393  1.017613E-5 
223 -5.1443 1.034327  1.572720E-5 
224 -5.9852 1.013972  6.453680E-6 
225 -5.7176 1.015177  7.067519E-6 
226 -7.3229 1.025039  1.175443E-5 
227 11.3287 1.002747  1.300155E-6 
228 -3.9213 1.001935  9.233182E-7 
229 -7.8198 1.013061  6.281424E-6 
230 12.2077 1.008590  4.164006E-6 
231 -8.0491 1.030958  1.512796E-5 
232 16.9853 1.035764  1.761592E-5 
233 -5.7941 1.035865  1.780604E-5 
234 12.2842 1.017425  8.719831E-6 
235 -10.7627 1.026227  1.322793E-5 
236 -4.8768 1.011801  5.998756E-6 
237 -8.5842 1.020627  1.056783E-5 
238 -9.4632 1.011827  6.106821E-6 
239 -3.9595 1.032267  1.679081E-5 
240 -8.5077 1.023819  1.249162E-5 
241 -3.9977 1.023901  1.263181E-5 
242 -8.2020 1.016286  8.673857E-6 
243 10.8318 1.008817  4.732337E-6 
244 -7.9344 1.015289  8.268664E-6 
245 -3.6155 1.026077  1.421138E-5 
246 -2.2014 1.027012  1.483345E-5 
247 -0.2521 1.035600  1.969889E-5 
248 -4.7621 1.030029  1.674260E-5 
249 8.6150 1.011822  6.641245E-6 
250 -2.9658 1.019848  1.123399E-5 
251 5.9778 0.994204 -3.305413E-6 
252 -9.8072 1.052592  3.021709E-5 
253 -9.9601 0.998714 -7.441693E-7 
254 -2.3925 1.024470  1.427070E-5 
255 -10.1894 1.012649  7.431502E-6 
256 -5.6794 1.022639  1.340006E-5 
257 -2.6982 1.015459  9.218003E-6 
258 -7.2847 1.015520  9.322681E-6 
259 17.0617 1.007668  4.639997E-6 
260 -10.3041 1.020764  1.265642E-5 
261 14.0423 0.977228 -1.398219E-5 
262 9.6852 0.993331 -4.124715E-6 
263 -10.9921 0.991340 -5.394726E-6 
264 -9.5779 1.045198  2.836169E-5 
265 -10.7627 1.024437  1.544502E-5 
266 18.6670 1.007085  4.510468E-6 
267 -10.9538 1.019812  1.270316E-5 
268 -5.1061 1.009306  6.009326E-6 
269 -7.6669 1.029309  1.906270E-5 
270 14.7303 1.018919  1.239246E-5 
271 7.9653 1.014050  9.268408E-6 
272 -8.8135 1.022709  1.508748E-5 
273 -12.6738 1.017538  1.173425E-5 
274 -10.1130 1.011568  7.794261E-6 
275 12.8575 0.998230 -1.201245E-6 
276 -3.7684 1.020736  1.416861E-5 
277 9.3794 1.025409  1.748333E-5 
278 -6.1763 1.028419  1.969087E-5 
279 -9.6926 1.014721  1.027069E-5 
280 10.1056 1.033981  2.387251E-5 
281 -8.9282 1.013820  9.775968E-6 
282 -3.6537 1.028361  2.020059E-5 
283 12.3606 1.027178  1.949131E-5 
284 -8.8135 1.006061  4.376689E-6 
285 12.2077 1.009412  6.842771E-6 
286 -8.1637 1.010177  7.449344E-6 
287 -5.9852 1.019557  1.441295E-5 
288 -9.5397 1.022919  1.700495E-5 
289 -8.3548 1.004433  3.311718E-6 
290 12.5517 1.033934  2.551962E-5 
291 -3.4626 1.033818  2.560347E-5 
292 12.1695 1.034671  2.642530E-5 
293 -8.1255 1.020020  1.536066E-5 
294 -6.9407 1.028311  2.186712E-5 
295 14.8067 1.010181  7.916567E-6 
296 -9.3104 1.034295  2.684327E-5 
297 8.8826 1.006211  4.893976E-6 
298 -7.1318 1.006669  5.289489E-6 
299 7.8506 1.007210  5.755930E-6 
300 15.0743 1.012740  1.023714E-5 
301 12.0166 1.041049  3.320249E-5 
302 -8.5077 1.007751  6.310318E-6 
303 -7.8962 1.026657  2.184346E-5 
304 1.6589 1.012048  9.937178E-6 
305 -6.2527 1.056707  4.707362E-5 
306 -8.0873 1.011961  9.993449E-6 
307 10.1438 1.029131  2.449556E-5 
308 -1.8574 1.016848  1.425843E-5 
309 11.5962 1.027111  2.309103E-5 
310 -8.0109 1.005591  4.792225E-6 
311 18.0937 0.990199 -8.454615E-6 
312 -9.5397 0.990704 -8.070630E-6 
313 10.0674 0.973047 -2.354809E-5 
314 11.9784 1.017765  1.561897E-5 
315 -9.6926 1.013189  1.166927E-5 
316 -4.9915 1.030730  2.736009E-5 
317 16.7178 1.032919  2.949370E-5 
318 -9.5397 1.010952  9.874129E-6 
319 15.7240 1.012859  1.166594E-5 
320 -8.3548 1.041232  3.763960E-5 
321 8.7297 1.036415  3.344875E-5 
322 -6.1763 0.993962 -5.580797E-6 
323 -1.7045 1.012147  1.129670E-5 
324 -6.6349 1.014304  1.338500E-5 
325 -3.7684 1.027712  2.609090E-5 
326 11.6727 1.024103  2.283213E-5 
327 17.5204 1.016588  1.580993E-5 
328 11.0993 1.016887  1.619331E-5 
329 9.8381 1.036299  3.502035E-5 
330 14.0805 1.055087  5.347058E-5 
331 -10.2276 0.991678 -8.126427E-6 
332 -6.3292 1.040100  3.939705E-5 
333 11.0229 1.018392  1.817844E-5 
334 -9.8837 1.000664  6.605197E-7 
335 -8.1637 1.005249  5.250715E-6 
336 12.3988 1.000149  1.496785E-7 
337 13.6601 1.004639  4.696501E-6 
338 -9.0810 0.995692 -4.386907E-6 
339 9.0737 1.004159  4.261306E-6 
340 -2.6218 1.026831  2.765156E-5 
341 11.0229 0.992377 -7.902470E-6 
342 10.4114 1.018213  1.899312E-5 
343 -9.0428 0.998930 -1.121934E-6 
344 9.5705 1.029023  3.062410E-5 
345 -9.6161 1.017486  1.855859E-5 
346 13.1250 1.014706  1.569921E-5 
347 -3.9977 1.033852  3.635116E-5 
348 14.4245 1.024075  2.600326E-5 
349 7.7360 1.007753  8.422701E-6 
350 -1.1312 1.024359  2.661642E-5 
351 -5.3354 1.014255  1.566563E-5 
352 -8.5842 0.998198 -1.991788E-6 
353 -3.7302 1.009005  1.001078E-5 
354 9.9910 1.034688  3.878516E-5 
355 13.0104 1.018779  2.111760E-5 
356 10.8318 1.016501  1.866201E-5 
357 11.2905 1.032299  3.673735E-5 
358 -6.9789 1.013328  1.524616E-5 
359 9.9910 1.014564  1.675402E-5 
360 15.9151 1.010603  1.226711E-5 
361 -6.6349 1.018261  2.124601E-5 
362 -4.9532 1.020523  2.401264E-5 
363 -9.0428 1.034288  4.034382E-5 
364 -10.4570 1.015943  1.886440E-5 
365 -9.4632 1.009236  1.098980E-5 
366 12.0931 1.002131  2.549276E-6 
367 15.4565 0.992239 -9.338489E-6 
368 9.7234 0.990062 -1.202364E-5 
369 -3.6537 1.030916  3.761290E-5 
370 -6.2909 1.009135  1.117572E-5 
371 -8.2784 1.025611  3.150545E-5 
372 -0.9401 1.020692  2.559510E-5 
373 -4.3799 1.043365  5.393552E-5 
374 -9.8072 1.024578  3.073670E-5 
375 -10.7627 1.009993  1.256619E-5 
376 -7.7815 1.020326  2.569862E-5 
377 18.1701 1.032491  4.130356E-5 
378 -8.1637 1.025957  3.317694E-5 
379 -9.5015 1.018423  2.367531E-5 
380 5.2516 1.001117  1.442901E-6 
381 -9.4250 1.031188  4.051437E-5 
382 -0.0992 1.017831  2.328866E-5 
383 12.7428 1.015888  2.086234E-5 
384 -18.3304 1.029997  3.960083E-5 
385 10.6025 1.024047  3.191671E-5 
386 10.6789 1.023299  3.108924E-5 
387 -8.7371 0.999536 -6.226546E-7 
388 9.7234 1.021839  2.945276E-5 
389 -3.6920 1.019226  2.606627E-5 
390 -8.1637 1.007164  9.764924E-6 
391 9.9145 1.037476  5.135000E-5 
392 -6.9407 0.994502 -7.573627E-6 
393 -8.8517 1.024533  3.397119E-5 
394 -10.5716 1.040398  5.623349E-5 
395 -10.9538 1.009769  1.366996E-5 
396 -8.6606 1.000677  9.519818E-7 
397 -7.3611 1.041718  5.898988E-5 
398 -9.3486 1.020575  2.924429E-5 
399 -10.1130 1.006846  9.781383E-6 
400 -9.6543 1.027265  3.915854E-5 
401 -2.1249 1.014441  2.084763E-5 
402 18.3995 1.045612  6.618904E-5 
403 17.2146 1.016059  2.342410E-5 
404 -5.2972 0.993736 -9.184241E-6 
405 8.5768 1.018983  2.797425E-5 
406 17.1764 1.006175  9.146701E-6 
407 18.5141 1.018536  2.759617E-5 
408 0.2065 1.002372  3.549192E-6 
409 15.7240 0.994976 -7.556161E-6 
410 12.5135 1.049403  7.468366E-5 
411 -5.6030 1.016515  2.509303E-5 
412 -3.3098 1.039172  5.981994E-5 
413 -1.2841 1.017915  2.749698E-5 
414 16.4502 1.038277  5.904549E-5 
415 -6.4438 1.001464  2.270386E-6 
416 -9.5779 0.997868 -3.321327E-6 
417 18.0172 1.023732  3.716244E-5 
418 13.2397 1.010752  1.692157E-5 
419 9.5323 0.991028 -1.419133E-5 
420 -9.6926 1.009094  1.445607E-5 
421 -7.8962 1.009718  1.552346E-5 
422 8.2710 1.016250  2.608736E-5 
423 -9.6543 1.011096  1.790193E-5 
424 -4.7621 1.007885  1.278478E-5 
425 -2.3542 1.040171  6.545146E-5 
426 10.7171 1.042718  6.994532E-5 
427 11.8255 1.024307  3.999461E-5 
428 14.4245 1.031027  5.130374E-5 
429 10.9847 0.991925 -1.341767E-5 
430 -7.1700 1.015595  2.603959E-5 
431 -6.6732 1.007937  1.331757E-5 
432 9.0354 1.034967  5.895579E-5 
433 16.4120 1.008037  1.361653E-5 
434 -9.1957 1.019750  3.362375E-5 
435 -9.9983 1.029311  5.014187E-5 
436 -3.4244 1.011981  2.059567E-5 
437 -5.7176 0.998333 -2.879360E-6 
438 -2.6600 1.015862  2.753024E-5 
439 -5.9470 1.030742  5.361197E-5 
440 -11.3743 1.014887  2.608639E-5 
441 -6.6349 1.017918  3.154746E-5 
442 -11.0303 1.013405  2.371415E-5 
443 13.8512 1.044479  7.906212E-5 
444 -4.6857 1.009202  1.643534E-5 
445 10.9082 1.005950  1.067742E-5 
446 8.2328 1.018176  3.277057E-5 
447 -7.9344 1.030886  5.595078E-5 
448 -2.2014 1.022231  4.046240E-5 
449 11.3669 1.023832  4.357980E-5 
450 14.3863 0.988197 -2.168547E-5 
451 -8.2402 1.022483  4.150025E-5 
452 -6.3674 1.021184  3.928543E-5 
453 -10.3805 1.024294  4.526388E-5 
454 8.3475 1.019277  3.608563E-5 
455 -0.9019 1.050243  9.448775E-5 
456 -7.6287 1.013253  2.504010E-5 
457 -3.4626 1.030793  5.844942E-5 
458 13.0104 1.019793  3.774465E-5 
459 -8.0491 1.026467  5.070478E-5 
460 12.0166 1.036578  7.039914E-5 
461 -10.0365 1.026219  5.069495E-5 
462 -8.4313 1.034479  6.697108E-5 
463 -5.4501 1.026059  5.084858E-5 
464 14.9978 0.993360 -1.301627E-5 
465 -9.0810 1.012676  2.496255E-5 
466 -19.2095 1.033967  6.719513E-5 
467 -0.0228 1.026595  5.285052E-5 
468 -6.2909 1.041566  8.297915E-5 
469 10.4878 1.023180  4.648542E-5 
470 -1.9720 1.014953  3.012197E-5 
471 -3.9977 1.012068  2.442096E-5 
472 11.2905 1.036917  7.504245E-5 
473 -10.8010 1.020326  4.150282E-5 
474 9.2265 1.004127  8.465668E-6 
475 11.4051 0.995996 -8.250201E-6 
476 12.7428 1.006037  1.249364E-5 
477 15.3418 1.023137  4.809707E-5 
478 -5.6030 1.011619  2.426082E-5 
479 11.2905 1.008718  1.828498E-5 
480 18.1319 1.032311  6.807313E-5 
481 17.9790 0.995623 -9.262598E-6 
482 -9.3868 1.003178  6.755281E-6 
483 -9.5779 1.047025  1.003974E-4 
484 6.5129 1.005554  1.190994E-5 
485 11.4433 1.036248  7.807441E-5 
486 -10.1894 0.998839 -2.512629E-6 
487 -5.2590 1.032952  7.160085E-5 
488 15.6476 1.014106  3.078534E-5 
489 10.4878 1.017776  3.896441E-5 
490 10.5643 1.004014  8.838048E-6 
491 -8.6988 1.022522  4.980008E-5 
492 -9.0810 1.025602  5.685920E-5 
493 -8.2784 1.018359  4.095146E-5 
494 16.9853 1.028299  6.339591E-5 
495 -7.8962 1.021966  4.942267E-5 
496 -8.2402 1.021599  4.880829E-5 
497 10.2585 1.010802  2.451412E-5 
498 17.2146 1.022494  5.126920E-5 
499 -5.3354 1.017204  3.938132E-5 
500 -6.3292 1.034102  7.839994E-5 
501 -11.0685 1.036472  8.420681E-5 
502 10.8700 1.026067  6.044331E-5 
503 -7.2847 1.013524  3.149252E-5 
504 -10.4952 1.029222  6.833891E-5 
505 -8.9282 1.030358  7.129922E-5 
506 -11.6800 1.005774  1.361924E-5 
507 -10.2659 1.002205  5.223569E-6 
508 8.4239 1.034610  8.232716E-5 
509 13.4308 1.030898  7.380712E-5 
510 -7.8198 1.019023  4.563359E-5 
511 11.5580 1.021643  5.213739E-5 
512 -10.8392 1.026248  6.349706E-5 
513 -0.7490 1.026334  6.397393E-5 
514 -1.7427 1.020068  4.895682E-5 
515 16.0680 1.019145  4.690239E-5 
516 -1.6281 0.999874 -3.103113E-7 
517 14.9214 1.019319  4.772383E-5 
518 -9.0810 1.023751  5.891842E-5 
519 -6.3292 0.993188 -1.696951E-5 
520 13.7748 1.040732  1.018861E-4 
521 -1.9338 1.027006  6.783277E-5 
522 -8.1255 1.001283  3.234730E-6 
523 -4.7621 1.012218  3.094295E-5 
524 -9.3104 1.016216  4.123834E-5 
525 9.4177 1.031606  8.070920E-5 
526 -7.1318 1.039266  1.006813E-4 
527 -0.4432 0.999082 -2.364402E-6 
528 -4.6857 1.022621  5.848120E-5 
529 -3.6920 1.026687  6.927445E-5 
530 -7.8962 1.014051  3.662287E-5 
531 14.5392 1.026014  6.808082E-5 
532 -8.7753 1.033042  8.682859E-5 
533 9.5705 1.015043  3.969008E-5 
534 -2.3160 1.042020  1.113227E-4 
535 -10.5334 1.012489  3.322062E-5 
536 -4.2270 1.013475  3.598798E-5 
537 -4.0359 1.030614  8.209587E-5 
538 -8.5460 1.034282  9.230374E-5 
539 -6.8643 0.999862 -3.729869E-7 
540 -6.4820 1.028530  7.743754E-5 
541 9.6852 1.013205  3.598651E-5 
542 -8.5460 1.018427  5.041810E-5 
543 -2.5453 1.009545  2.622096E-5 
544 -9.5779 1.017578  4.848223E-5 
545 14.6156 1.016880  4.674227E-5 
546 -8.2784 1.006557  1.822855E-5 
547 -7.4758 1.029835  8.327489E-5 
548 -8.6606 1.003484  9.762008E-6 
549 13.2397 1.004430  1.246274E-5 
550 12.8957 1.021414  6.048658E-5 
551 -8.1255 1.010457  2.965378E-5 
552 11.1376 1.025919  7.379347E-5 
553 -8.3548 1.034099  9.746380E-5 
554 -8.4695 1.014542  4.172815E-5 
555 13.0868 1.026277  7.570080E-5 
 2.655367  91.00  90.00 -0.00 0.09
  0 0.0154 0.924830 -4.232456E-6 
  1 -1.2076 0.909468 -5.100820E-6 
  2 -7.0936 1.085842  4.841035E-6 
  3 -1.5898 1.022596  1.275838E-6 
  4 1.9647 1.025499  1.441781E-6 
  5 -12.4062 1.023880  1.352568E-6 
  6 0.3594 1.029061  1.649215E-6 
  7 1.0474 1.035552  2.022002E-6 
  8 0.3594 0.998730 -7.238281E-8 
  9 0.0154 1.013359  7.637015E-7 
 10 -0.3668 1.020916  1.199279E-6 
 11 0.7416 1.011671  6.713226E-7 
 12 0.2830 1.046520  2.685101E-6 
 13 1.2385 1.068855  3.988973E-6 
 14 -0.4050 1.043394  2.523851E-6 
 15 -0.9783 1.008414  4.914334E-7 
 16 -10.5334 1.022628  1.327348E-6 
 17 0.0536 1.049567  2.921117E-6 
 18 0.0536 1.027678  1.639074E-6 
 19 0.8945 1.051511  3.066009E-6 
 20 -11.1067 1.008152  4.877685E-7 
 21 -1.0547 1.018204  1.095322E-6 
 22 1.0474 1.010428  6.310232E-7 
 23 -0.6343 1.048621  2.959848E-6 
 24 1.1620 1.037538  2.299268E-6 
 25 -0.7108 1.001981  1.221419E-7 
 26 -17.7189 1.032518  2.017705E-6 
 27 -0.6725 1.025077  1.566563E-6 
 28 0.7034 1.035949  2.261416E-6 
 29 -0.5961 1.011552  7.318665E-7 
 30 1.7353 1.017601  1.123309E-6 
 31 -0.5961 1.029365  1.888259E-6 
 32 2.0793 1.038563  2.498810E-6 
 33 0.0536 1.032369  2.114010E-6 
 34 -1.9720 1.016391  1.079104E-6 
 35 2.0029 1.010622  7.050262E-7 
 36 2.5762 1.014882  9.961206E-7 
 37 0.2447 1.017445  1.177588E-6 
 38 -0.4432 1.036317  2.472844E-6 
 39 -7.7815 1.011774  8.087601E-7 
 40 0.4358 1.046709  3.237414E-6 
 41 1.5442 1.024034  1.680959E-6 
 42 -0.7490 1.037870  2.673216E-6 
 43 0.0919 1.015463  1.101768E-6 
 44 1.0092 1.065324  4.698722E-6 
 45 0.6270 1.043354  3.148503E-6 
 46 0.0536 1.028457  2.086816E-6 
 47 -3.5009 1.031448  2.328877E-6 
 48 1.4296 1.020624  1.542538E-6 
 49 -0.7872 1.027803  2.100520E-6 
 50 -0.0992 1.041602  3.175009E-6 
 51 -17.5278 1.000110  8.461354E-9 
 52 -0.6725 1.025591  1.993653E-6 
 53 1.3531 1.027491  2.164120E-6 
 54 -18.9801 1.035410  2.816964E-6 
 55 9.8763 1.013631  1.095951E-6 
 56 -1.8192 1.005053  4.106017E-7 
 57 1.7736 0.992014 -6.559938E-7 
 58 9.1883 0.997730 -1.885218E-7 
 59 13.2397 0.997290 -2.274911E-7 
 60 -8.1637 1.013962  1.184936E-6 
 61 -0.2521 1.005901  5.063548E-7 
 62 1.2385 1.013726  1.190927E-6 
 63 4.7548 1.019644  1.723507E-6 
 64 -16.1518 1.020441  1.813581E-6 
 65 8.0035 1.010378  9.311731E-7 
 66 0.5887 1.043272  3.926787E-6 
 67 -11.9093 1.022703  2.083735E-6 
 68 -17.7953 1.016080  1.492725E-6 
 69 0.7416 1.014462  1.357893E-6 
 70 0.8563 1.014726  1.398614E-6 
 71 -8.4695 1.025358  2.436285E-6 
 72 0.7034 0.999331 -6.505058E-8 
 73 2.3469 1.004084  4.015672E-7 
 74 -16.9162 1.043252  4.301937E-6 
 75 -16.4576 1.029570  2.975447E-6 
 76 -6.4820 1.002632  2.679516E-7 
 77 -17.5660 0.996673 -3.426155E-7 
 78 0.7034 1.048519  5.055732E-6 
 79 2.6909 1.015841  1.670039E-6 
 80 11.5962 1.007064  7.535414E-7 
 81 10.4496 1.018790  2.027871E-6 
 82 0.9327 1.004483  4.895173E-7 
 83 -15.5403 0.998847 -1.274270E-7 
 84 12.2077 1.018708  2.091282E-6 
 85 -11.2596 1.025288  2.860216E-6 
 86 2.7673 1.025159  2.879317E-6 
 87 18.7817 1.013081  1.514739E-6 
 88 -9.3486 1.033065  3.874075E-6 
 89 -15.2727 0.997379 -3.107343E-7 
 90 13.4690 1.014488  1.737905E-6 
 91 -7.1318 0.996868 -3.801085E-7 
 92 3.1877 1.005035  6.182833E-7 
 93 -13.7821 1.002282  2.835756E-7 
 94 3.9521 1.028527  3.586323E-6 
 95 10.6025 1.028238  3.591887E-6 
 96 -13.0177 1.011543  1.485522E-6 
 97 -7.1700 0.994160 -7.603795E-7 
 98 -5.1061 1.012506  1.647623E-6 
 99 3.4170 1.021707  2.893335E-6 
100 -4.9150 1.020125  2.713903E-6 
101 -0.0610 1.007258  9.902244E-7 
102 -8.9664 1.009275  1.280225E-6 
103 -13.7057 1.009064  1.265698E-6 
104 -7.4758 1.017527  2.476046E-6 
105 -7.4758 0.986174 -1.976023E-6 
106 10.5643 0.997732 -3.278404E-7 
107 -5.4501 0.987082 -1.889360E-6 
108 -19.5917 1.011133  1.647212E-6 
109 -4.1506 1.005471  8.188793E-7 
110 -5.0297 1.005721  8.661601E-7 
111 11.6344 1.020500  3.139197E-6 
112 -15.2345 1.000498  7.710653E-8 
113 -18.5979 1.043316  6.786477E-6 
114 1.4296 0.995654 -6.887378E-7 
115 -17.6806 1.023866  3.825261E-6 
116 -6.2909 1.022182  3.595922E-6 
117 -1.2841 1.027972  4.586008E-6 
118 -7.3611 1.002879  4.774292E-7 
119 10.8318 1.004319  7.243247E-7 
120 -17.7953 1.026085  4.423610E-6 
121 13.5072 1.006625  1.136113E-6 
122 -1.7809 0.996885 -5.401882E-7 
123 -3.1951 1.024441  4.286130E-6 
124 -15.8843 1.042177  7.479327E-6 
125 9.2265 0.997375 -4.706139E-7 
126 13.3926 0.998894 -2.005855E-7 
127 -8.3548 1.022367  4.100311E-6 
128 -7.3993 1.019913  3.690754E-6 
129 4.4108 1.022089  4.139203E-6 
130 4.1815 1.022614  4.284346E-6 
131 -0.1757 1.029883  5.723576E-6 
132 -2.1631 1.001796  3.476759E-7 
133 17.6733 1.033645  6.585813E-6 
134 -10.0365 0.994715 -1.045773E-6 
135 -14.0879 1.018134  3.627202E-6 
136 -15.4638 1.024676  4.989184E-6 
137 -15.5021 0.999752 -5.060352E-8 
138 11.3669 0.989991 -2.067605E-6 
139 -5.4119 1.016964  3.541915E-6 
140 -19.6681 1.016136  3.404933E-6 
141 -6.0616 1.004921  1.049500E-6 
142 -15.9989 1.056440  1.216487E-5 
143 -16.7251 0.979936 -4.370480E-6 
144 18.7052 0.997091 -6.403785E-7 
145 -12.7120 0.993235 -1.504827E-6 
146 -8.8517 0.999419 -1.305689E-7 
147 -7.4758 0.988156 -2.690089E-6 
148 8.9208 1.017537  4.024776E-6 
149 -18.7890 1.017173  3.982229E-6 
150 -7.2847 1.000751  1.759323E-7 
151 13.1633 0.998210 -4.236557E-7 
152 -15.6167 1.018567  4.440522E-6 
153 -7.8198 1.025223  6.094311E-6 
154 -8.6224 1.006727  1.642039E-6 
155 4.9076 0.999883 -2.893954E-8 
156 12.2460 1.015737  3.919998E-6 
157 -7.7051 1.037564  9.452163E-6 
158 -16.3047 0.987584 -3.155871E-6 
159 11.2522 1.004249  1.090919E-6 
160 1.8882 1.013907  3.606303E-6 
161 -7.0554 1.004240  1.110561E-6 
162 -1.2841 1.029137  7.707680E-6 
163 -8.8517 1.043782  1.169687E-5 
164 -17.9100 1.031671  8.545182E-6 
165 -8.5460 1.017835  4.859681E-6 
166 6.5129 1.029420  8.095449E-6 
167 -12.4827 1.012382  3.440583E-6 
168 -0.5961 0.999831 -4.728236E-8 
169 11.4816 1.006761  1.915535E-6 
170 -15.1199 1.001956  5.595881E-7 
171 11.8255 1.012578  3.633218E-6 
172 18.8581 1.017179  5.010441E-6 
173 9.6852 1.002664  7.844249E-7 
174 -1.7809 1.003443  1.023663E-6 
175 -6.1381 1.024058  7.220655E-6 
176 -5.1061 1.038322  1.161169E-5 
177 6.5893 1.016542  5.060045E-6 
178 -17.0691 1.026408  8.154484E-6 
179 12.6282 1.008828  2.751741E-6 
180 -10.5334 1.026362  8.294652E-6 
181 -18.7890 1.004665  1.481445E-6 
182 -9.3868 0.996405 -1.152326E-6 
183 -2.4307 0.970291 -9.612470E-6 
184 -6.9025 1.015871  5.182827E-6 
185 -7.9344 0.989869 -3.339112E-6 
186 -14.9288 1.001039  3.456600E-7 
187 -5.2590 1.025851  8.678076E-6 
188 11.1376 1.029464  9.981474E-6 
189 -7.2465 0.983249 -5.726831E-6 
190 -1.0547 1.025278  8.720462E-6 
191 1.6207 1.039231  1.365707E-5 
192 -8.2784 1.002854  1.002496E-6 
193 -8.5842 1.027540  9.761409E-6 
194 -0.6725 1.036244  1.296211E-5 
195 -16.5722 1.026289  9.486084E-6 
196 -18.0246 0.998142 -6.764835E-7 
197 11.5580 0.995994 -1.471404E-6 
198 -18.7126 1.014102  5.225824E-6 
199 18.7434 1.010517  3.931960E-6 
200 1.4678 1.023410  8.829189E-6 
201 11.7491 1.018429  7.011747E-6 
202 -16.5722 1.017312  6.644363E-6 
203 -8.7371 1.012231  4.735289E-6 
204 -13.4382 1.012190  4.760458E-6 
205 -5.9470 1.023633  9.309488E-6 
206 18.2466 0.998900 -4.370955E-7 
207 -0.7108 1.001663  6.663519E-7 
208 -15.1199 1.030861  1.247412E-5 
209 5.4045 1.019491  7.945993E-6 
210 -7.1700 1.016528  6.795645E-6 
211 -18.7126 0.997481 -1.044638E-6 
212 -4.8386 1.026540  1.109836E-5 
213 4.6783 1.019377  8.171694E-6 
214 -3.9977 1.008589  3.652757E-6 
215 -16.9927 1.011188  4.798107E-6 
216 -0.4814 1.013435  5.809904E-6 
217 -6.5585 1.001456  6.350912E-7 
218 -9.2339 1.049956  2.196587E-5 
219 -19.2859 1.020998  9.309636E-6 
220 -5.9852 0.989631 -4.635279E-6 
221 -9.2721 1.024428  1.100999E-5 
222 10.0674 1.011415  5.187052E-6 
223 11.4433 1.025157  1.152577E-5 
224 -2.7364 1.002927  1.352092E-6 
225 8.6915 0.986380 -6.342471E-6 
226 8.3475 1.011966  5.617599E-6 
227 -16.7251 1.021979  1.040147E-5 
228 12.6282 1.004259  2.031835E-6 
229 -8.5077 0.989945 -4.835700E-6 
230 -8.0873 1.025462  1.234342E-5 
231 3.4935 1.011684  5.709265E-6 
232 -16.5722 1.015033  7.404740E-6 
233 5.0987 1.041482  2.059467E-5 
234 2.3087 1.022829  1.142391E-5 
235 3.3788 1.027146  1.369153E-5 
236 0.6652 1.037320  1.897100E-5 
237 1.8118 1.023517  1.204867E-5 
238 -15.3492 1.016406  8.471122E-6 
239 -11.1067 1.024097  1.253976E-5 
240 -6.7114 1.012169  6.381851E-6 
241 -8.5077 0.989274 -5.668493E-6 
242 -0.1375 1.014940  7.957137E-6 
243 -14.6612 1.017465  9.373429E-6 
244 3.4935 0.996232 -2.038030E-6 
245 3.9139 1.009197  5.012250E-6 
246 -5.4119 1.032073  1.761275E-5 
247 -18.1775 0.986205 -7.633078E-6 
248 12.8957 0.998071 -1.075462E-6 
249 -4.3417 0.991858 -4.574045E-6 
250 -12.9031 1.004502  2.548231E-6 
251 1.6589 1.013652  7.785258E-6 
252 -3.4244 1.016681  9.584292E-6 
253 12.3988 1.002355  1.363021E-6 
254 -16.7251 1.022982  1.340300E-5 
255 -19.8210 1.022842  1.342055E-5 
256 7.5831 1.006885  4.075026E-6 
257 1.7353 1.037479  2.234774E-5 
258 -9.0810 1.003935  2.363426E-6 
259 -16.6869 1.004144  2.507382E-6 
260 -8.7753 1.036482  2.223723E-5 
261 10.7936 0.978091 -1.345191E-5 
262 -17.7953 1.012830  7.935296E-6 
263 6.3218 0.991920 -5.033836E-6 
264 -2.3542 1.034912  2.190695E-5 
265 1.5825 1.000150  9.501266E-8 
266 3.3024 0.995778 -2.687729E-6 
267 12.7046 1.034004  2.180251E-5 
268 8.8443 1.000152  9.844981E-8 
269 -16.0372 1.029065  1.890389E-5 
270 -7.2465 1.004005  2.623333E-6 
271 5.6720 1.019274  1.271511E-5 
272 1.4296 1.026929  1.789065E-5 
273 1.9264 1.012091  8.089601E-6 
274 -10.5334 1.020238  1.363631E-5 
275 -17.6424 1.005556  3.769752E-6 
276 9.8381 1.034702  2.371176E-5 
277 1.0474 1.027452  1.888912E-5 
278 -13.4764 1.015554  1.077652E-5 
279 0.5505 1.019607  1.367925E-5 
280 -6.9789 1.026243  1.843632E-5 
281 -8.3166 1.037656  2.663753E-5 
282 -17.0309 0.988155 -8.437054E-6 
283 -8.8899 0.998373 -1.166910E-6 
284 -0.7490 1.016028  1.157325E-5 
285 -11.7182 1.049076  3.567970E-5 
286 10.4878 0.966987 -2.416533E-5 
287 -16.6105 1.003293  2.426587E-6 
288 -16.9544 1.028852  2.140732E-5 
289 -9.3104 1.005950  4.444911E-6 
290 -18.8272 1.013581  1.021329E-5 
291 -14.4319 1.024476  1.853048E-5 
292 11.0611 1.010326  7.869945E-6 
293 -17.7953 1.003190  2.447767E-6 
294 -3.3480 1.014817  1.144471E-5 
295 -14.3937 1.002120  1.648046E-6 
296 -8.7753 1.026437  2.069268E-5 
297 12.7046 1.026962  2.124300E-5 
298 -7.1318 1.015265  1.210647E-5 
299 -5.2972 1.003625  2.893850E-6 
300 -6.1763 1.044725  3.594015E-5 
301 -17.4131 1.027666  2.237762E-5 
302 1.9264 1.036786  2.994884E-5 
303 10.6025 0.995226 -3.912130E-6 
304 11.4816 1.038503  3.175611E-5 
305 -7.9344 1.006731  5.587124E-6 
306 2.4233 1.011722  9.793363E-6 
307 -15.5021 1.016518  1.388995E-5 
308 -7.2082 1.002902  2.456087E-6 
309 -18.0628 0.999140 -7.327386E-7 
310 -9.8072 1.031270  2.680386E-5 
311 3.2259 0.997710 -1.975263E-6 
312 1.6971 1.014030  1.218021E-5 
313 1.6589 1.019794  1.729364E-5 
314 2.3087 1.009644  8.479008E-6 
315 0.0919 1.007869  6.962432E-6 
316 -9.8454 0.998358 -1.462192E-6 
317 2.2322 1.013166  1.179583E-5 
318 19.1256 1.015597  1.406140E-5 
319 -3.1187 1.021646  1.963761E-5 
320 -6.2527 1.025011  2.283131E-5 
321 -3.6920 1.017088  1.569660E-5 
322 -16.0372 1.015920  1.471420E-5 
323 7.5448 1.027321  2.540796E-5 
324 16.4502 1.004857  4.545032E-6 
325 9.1501 1.014409  1.356570E-5 
326 -13.2853 0.992736 -6.881393E-6 
327 -0.3668 1.020265  1.931479E-5 
328 6.2454 1.001121  1.074856E-6 
329 -8.6988 1.023956  2.311198E-5 
330 -7.0936 1.028124  2.729923E-5 
331 -16.9927 0.983288 -1.632061E-5 
332 -9.1575 1.010649  1.046226E-5 
333 -5.2208 1.042287  4.179738E-5 
334 -9.9601 1.034638  3.444289E-5 
335 12.8193 1.014353  1.435825E-5 
336 1.8882 1.011627  1.170112E-5 
337 5.6720 1.023300  2.358862E-5 
338 -17.0309 1.018534  1.887530E-5 
339 13.0104 0.998065 -1.982615E-6 
340 -7.8198 1.017358  1.788857E-5 
341 -16.0372 0.999621 -3.927178E-7 
342 -17.6042 0.986082 -1.451364E-5 
343 5.6720 1.017662  1.852706E-5 
344 0.0154 1.032082  3.385164E-5 
345 -10.9921 0.998158 -1.955492E-6 
346 -15.1963 1.004943  5.276836E-6 
347 -19.3623 1.030791  3.306389E-5 
348 -1.9720 1.004524  4.886711E-6 
349 1.2385 1.022255  2.417706E-5 
350 -4.8768 1.014040  1.534066E-5 
351 9.4941 1.019091  2.098053E-5 
352 9.7234 1.001822  2.013714E-6 
353 -5.9852 1.041384  4.600716E-5 
354 -17.4513 1.032918  3.680562E-5 
355 4.8312 1.021851  2.457210E-5 
356 -15.1199 1.001284  1.452564E-6 
357 -13.5528 1.031601  3.594302E-5 
358 0.3212 1.002944  3.367887E-6 
359 -18.0628 1.026069  2.999022E-5 
360 -15.6550 0.999829 -1.976686E-7 
361 -1.8574 1.007195  8.371039E-6 
362 -17.9100 1.022714  2.657643E-5 
363 -13.0177 1.032865  3.866986E-5 
364 8.8826 1.011366  1.344888E-5 
365 -9.9219 1.002976  3.540825E-6 
366 -6.3292 0.996545 -4.134388E-6 
367 12.0166 0.993555 -7.754197E-6 
368 -1.0547 1.014339  1.734881E-5 
369 17.3675 1.015321  1.863950E-5 
370 -6.4056 1.018520  2.265681E-5 
371 -19.8592 0.994498 -6.768747E-6 
372 -14.3937 1.009281  1.148000E-5 
373 -10.1130 1.030968  3.851647E-5 
374 -7.8962 1.007145  8.935783E-6 
375 -15.3874 1.012578  1.581558E-5 
376 -16.3047 1.017371  2.196216E-5 
377 2.7291 1.011771  1.496405E-5 
378 0.2065 1.009877  1.262361E-5 
379 -15.0816 0.991627 -1.075955E-5 
380 -15.7314 1.027812  3.593463E-5 
381 0.2447 0.991459 -1.109478E-5 
382 -10.7245 0.981556 -2.408892E-5 
383 -8.0109 1.003712  4.873882E-6 
384 -3.0804 1.024971  3.296622E-5 
385 -8.6224 1.005192  6.891302E-6 
386 3.4935 1.015228  2.031921E-5 
387 -3.1187 1.010418  1.397610E-5 
388 -6.8260 0.998936 -1.435193E-6 
389 -0.9783 1.027141  3.679722E-5 
390 -11.0303 1.014152  1.928855E-5 
391 -19.1712 1.006071  8.319175E-6 
392 14.9596 1.000698  9.617546E-7 
393 -17.5278 1.038967  5.395799E-5 
394 6.4365 1.054707  7.615279E-5 
395 10.6789 1.017451  2.441912E-5 
396 13.2779 0.993402 -9.281698E-6 
397 2.4233 1.007502  1.060746E-5 
398 -7.3993 0.996298 -5.262030E-6 
399 -9.3868 0.999256 -1.062836E-6 
400 -17.2984 1.026343  3.783351E-5 
401 -7.5140 1.033307  4.808427E-5 
402 -6.0616 1.014347  2.081973E-5 
403 10.1821 1.013517  1.971536E-5 
404 -16.3047 0.994168 -8.549914E-6 
405 -5.6412 0.987521 -1.838926E-5 
406 11.1376 1.007898  1.169871E-5 
407 12.3224 1.008343  1.242158E-5 
408 -16.8780 1.020157  3.016273E-5 
409 -18.8272 1.012705  1.910965E-5 
410 1.9264 1.032750  4.950878E-5 
411 13.3926 1.030604  4.649957E-5 
412 7.6213 1.017282  2.639072E-5 
413 13.7366 1.015508  2.380182E-5 
414 12.8957 1.029170  4.499675E-5 
415 1.4296 1.026905  4.171202E-5 
416 11.0993 1.001099  1.711769E-6 
417 -8.1637 1.028713  4.496345E-5 
418 13.3926 1.008869  1.395816E-5 
419 -6.1381 0.988737 -1.781383E-5 
420 10.6407 1.013539  2.152098E-5 
421 -7.8962 1.031143  4.974898E-5 
422 -8.9664 1.023218  3.727417E-5 
423 1.8118 1.021020  3.391277E-5 
424 -2.4307 0.997224 -4.500993E-6 
425 -7.5904 1.014112  2.299273E-5 
426 -18.5597 1.024060  3.939572E-5 
427 -5.6412 1.037377  6.150094E-5 
428 8.6915 1.048785  8.066576E-5 
429 -11.7182 1.002184  3.628884E-6 
430 -7.1318 1.022528  3.761578E-5 
431 -9.9219 1.004107  6.890620E-6 
432 0.0919 1.000581  9.791834E-7 
433 10.5260 1.015029  2.546298E-5 
434 12.8575 1.044205  7.525692E-5 
435 -15.2345 0.975912 -4.120770E-5 
436 -5.8323 1.025520  4.386839E-5 
437 3.7228 1.030045  5.189516E-5 
438 8.6150 0.997271 -4.736235E-6 
439 -7.0936 1.009449  1.647774E-5 
440 10.7554 1.029135  5.105309E-5 
441 -15.5021 1.020155  3.548655E-5 
442 -15.8461 1.011532  2.040042E-5 
443 12.7810 1.021540  3.828773E-5 
444 -6.4438 0.998542 -2.603143E-6 
445 7.3537 0.998585 -2.539819E-6 
446 7.9653 1.007429  1.339475E-5 
447 3.4553 1.005563  1.007717E-5 
448 2.8437 1.006081  1.106848E-5 
449 -7.2847 1.007936  1.451279E-5 
450 -18.6361 0.984119 -2.917717E-5 
451 -19.1712 1.026048  4.808200E-5 
452 -16.4194 1.038870  7.208451E-5 
453 18.3230 1.029033  5.409481E-5 
454 -10.7627 0.978566 -4.012213E-5 
455 11.2140 1.016413  3.086593E-5 
456 1.8882 1.014661  2.770060E-5 
457 -5.8705 1.026959  5.117298E-5 
458 -6.8260 0.984319 -2.990239E-5 
459 10.9847 1.001639  3.140424E-6 
460 10.4496 0.991761 -1.585738E-5 
461 -10.9921 0.993582 -1.240999E-5 
462 11.0993 1.008459  1.643084E-5 
463 2.9584 1.028921  5.643350E-5 
464 -19.3623 1.017020  3.336349E-5 
465 12.7428 1.031118  6.127955E-5 
466 -12.9031 1.009866  1.951785E-5 
467 -5.1061 1.019133  3.802205E-5 
468 -0.4432 1.020823  4.156982E-5 
469 -4.1506 1.028499  5.715119E-5 
470 -9.5397 1.004334  8.731435E-6 
471 -19.9356 1.013614  2.754908E-5 
472 4.1050 1.008885  1.806063E-5 
473 -6.7878 1.029548  6.033376E-5 
474 -19.4388 1.003289  6.747063E-6 
475 -0.0228 1.022831  4.703874E-5 
476 -19.1330 1.027174  5.623846E-5 
477 -6.5203 1.031283  6.503128E-5 
478 8.2710 1.012094  2.525296E-5 
479 -16.8016 0.997731 -4.759578E-6 
480 8.4239 1.005991  1.262129E-5 
481 -0.8636 1.010532  2.228822E-5 
482 1.4678 0.989570 -2.216909E-5 
483 -8.7371 1.010935  2.334621E-5 
484 -0.9783 1.036073  7.735552E-5 
485 -15.6932 0.988977 -2.374169E-5 
486 -17.5278 1.030159  6.524440E-5 
487 4.3343 1.030958  6.726825E-5 
488 -7.9726 1.016964  3.702236E-5 
489 8.9972 1.002572  5.638306E-6 
490 1.6589 1.012041  2.650970E-5 
491 -17.7189 1.001611  3.562698E-6 
492 13.2397 0.995390 -1.023819E-5 
493 -14.9288 1.022771  5.079115E-5 
494 2.1940 1.028796  6.451020E-5 
495 -7.9344 1.022373  5.033725E-5 
496 15.0743 1.010482  2.368729E-5 
497 -8.0109 0.984635 -3.487106E-5 
498 -13.7821 1.017958  4.093237E-5 
499 -9.2721 1.006951  1.591170E-5 
500 13.2015 1.001610  3.700251E-6 
501 18.3612 1.001082  2.498196E-6 
502 -0.8636 1.039385  9.132374E-5 
503 -16.6869 1.018352  4.273444E-5 
504 -15.1963 1.026434  6.181950E-5 
505 -6.9407 1.023243  5.458732E-5 
506 -15.1199 0.994081 -1.395996E-5 
507 4.9841 0.999967 -7.818023E-8 
508 1.6207 1.013897  3.305765E-5 
509 -5.6030 1.006263  1.496038E-5 
510 -7.0171 1.005946  1.426324E-5 
511 -13.0177 1.009402  2.265007E-5 
512 -17.4131 1.029813  7.212283E-5 
513 2.9202 1.007499  1.821693E-5 
514 1.0092 1.018558  4.527395E-5 
515 11.3287 1.000715  1.751150E-6 
516 -8.0491 1.011850  2.915211E-5 
517 2.8437 1.008024  1.982278E-5 
518 -6.3292 1.021851  5.420597E-5 
519 -12.6738 1.004529  1.128143E-5 
520 10.6025 1.026195  6.552299E-5 
521 -5.5648 1.010800  2.712624E-5 
522 -6.4438 1.019355  4.881715E-5 
523 2.7291 1.011248  2.848639E-5 
524 -16.1518 1.002938  7.470565E-6 
525 -10.6481 0.990412 -2.448428E-5 
526 8.8443 1.017890  4.587245E-5 
527 -5.6794 1.012587  3.240626E-5 
528 7.0098 1.011679  3.019404E-5 
529 -9.8454 1.030907  8.023077E-5 
530 3.0348 0.984953 -3.922033E-5 
531 12.0166 0.994225 -1.511481E-5 
532 6.3600 1.005734  1.506684E-5 
533 -16.0754 1.009008  2.376841E-5 
534 -17.2984 0.989993 -2.651159E-5 
535 -7.5522 1.011897  3.164630E-5 
536 12.5899 1.008994  2.402227E-5 
537 -5.9470 1.040620  1.089272E-4 
538 9.9910 1.049597  1.335378E-4 
539 10.8700 0.994031 -1.613572E-5 
540 -0.3668 1.000118  3.211057E-7 
541 2.5380 1.004971  1.354581E-5 
542 5.8632 1.018876  5.164743E-5 
543 -19.0183 1.025322  6.956197E-5 
544 -6.6732 1.012249  3.378237E-5 
545 -6.8260 1.011549  3.197907E-5 
546 3.0348 1.001862  5.175902E-6 
547 -4.8386 1.004049  1.130162E-5 
548 -8.0491 1.015873  4.448084E-5 
549 -7.7051 1.016019  4.506834E-5 
550 -18.0246 1.003279  9.262677E-6 
551 4.7930 0.991089 -2.527081E-5 
552 -9.0046 1.001577  4.490876E-6 
553 -9.1957 1.028869  8.251655E-5 
554 0.9327 1.012585  3.611309E-5 
555 -0.9783 1.006450  1.858022E-5 
 2.808783  91.00  90.00 -0.00 -0.01
  0 0.0154 0.762493 -1.337277E-5 
  1 -0.7872 0.775055 -1.267399E-5 
  2 2.4998 1.147686  8.328764E-6 
  3 -0.4050 1.065209  3.681833E-6 
  4 1.3149 1.030956  1.750370E-6 
  5 -0.7872 1.035251  1.996577E-6 
  6 0.8181 1.020992  1.191266E-6 
  7 0.1301 1.043674  2.483939E-6 
  8 0.1301 1.013057  7.444632E-7 
  9 1.1238 1.025801  1.474994E-6 
 10 2.1558 1.046884  2.688248E-6 
 11 -0.4814 1.019539  1.123892E-6 
 12 0.2447 1.031398  1.812277E-6 
 13 -0.7490 1.036845  2.134560E-6 
 14 0.0919 1.038667  2.248886E-6 
 15 1.3531 1.024081  1.406386E-6 
 16 1.3914 1.071844  4.214409E-6 
 17 0.3976 1.049067  2.891614E-6 
 18 -0.7108 1.059639  3.531755E-6 
 19 0.7798 1.030860  1.836792E-6 
 20 0.0919 1.021941  1.312871E-6 
 21 0.5123 1.037477  2.254935E-6 
 22 -0.7490 1.011188  6.770627E-7 
 23 1.0856 1.051653  3.144416E-6 
 24 -0.4814 1.050084  3.067776E-6 
 25 0.3212 1.014890  9.178410E-7 
 26 0.7034 1.025388  1.575307E-6 
 27 -0.1757 1.050685  3.166254E-6 
 28 -0.2903 1.026700  1.679595E-6 
 29 -1.3605 1.008620  5.461551E-7 
 30 1.4296 1.044725  2.854449E-6 
 31 -0.5197 1.043538  2.799637E-6 
 32 1.2767 1.031394  2.034300E-6 
 33 -0.2903 1.008589  5.609374E-7 
 34 0.7034 1.015727  1.035421E-6 
 35 1.2003 1.007746  5.141682E-7 
 36 0.4741 1.031329  2.096968E-6 
 37 0.0919 1.034875  2.354203E-6 
 38 1.8118 1.023580  1.605589E-6 
 39 0.1301 1.012001  8.243527E-7 
 40 -0.9783 1.036735  2.546095E-6 
 41 18.2083 1.013440  9.400262E-7 
 42 -0.2903 1.004754  3.356036E-7 
 43 0.7416 1.037683  2.684959E-6 
 44 -0.3286 1.043084  3.099029E-6 
 45 0.5887 1.037515  2.724469E-6 
 46 -0.0992 1.037053  2.717136E-6 
 47 0.1683 1.050269  3.722697E-6 
 48 -0.1757 1.059217  4.429088E-6 
 49 -0.2903 1.034741  2.624634E-6 
 50 0.0536 1.059806  4.564379E-6 
 51 1.0092 1.017661  1.361720E-6 
 52 1.4296 1.030426  2.370373E-6 
 53 0.0536 1.025898  2.038710E-6 
 54 0.3212 1.035229  2.802602E-6 
 55 -1.5898 1.028342  2.278676E-6 
 56 1.9647 1.039824  3.236264E-6 
 57 17.0235 1.019082  1.567383E-6 
 58 2.2704 1.011472  9.525425E-7 
 59 -0.2139 1.010739  9.014519E-7 
 60 -1.0547 1.019865  1.685934E-6 
 61 -18.2922 0.984359 -1.342109E-6 
 62 -0.4050 1.014151  1.227863E-6 
 63 0.7798 1.008463  7.425498E-7 
 64 15.3418 1.002404  2.132792E-7 
 65 0.5505 1.031660  2.840737E-6 
 66 4.9459 1.044341  4.023776E-6 
 67 19.0492 1.034803  3.194220E-6 
 68 18.0555 1.023316  2.164446E-6 
 69 3.6081 1.029634  2.782545E-6 
 70 17.7115 1.024674  2.343533E-6 
 71 15.9533 1.028740  2.761259E-6 
 72 7.0480 1.021990  2.137211E-6 
 73 2.8437 1.018565  1.825323E-6 
 74 18.7434 1.005747  5.715935E-7 
 75 16.8706 1.031164  3.135810E-6 
 76 -0.2903 1.019522  1.987378E-6 
 77 -17.7953 0.984300 -1.616974E-6 
 78 18.2083 1.025392  2.645897E-6 
 79 15.5711 1.018034  1.901222E-6 
 80 0.9327 1.028543  3.044621E-6 
 81 5.3663 1.014552  1.570472E-6 
 82 4.8694 0.997925 -2.265297E-7 
 83 0.0919 1.029504  3.259734E-6 
 84 17.5968 1.021502  2.403649E-6 
 85 17.4057 1.025157  2.845469E-6 
 86 0.1683 1.039786  4.553244E-6 
 87 3.7992 1.016500  1.910684E-6 
 88 2.8820 1.003552  4.162093E-7 
 89 5.6720 1.020376  2.415617E-6 
 90 1.7353 1.019883  2.384932E-6 
 91 18.5141 1.027838  3.378648E-6 
 92 -0.9019 1.017586  2.159641E-6 
 93 3.4935 1.012409  1.541831E-6 
 94 18.5141 0.991848 -1.024798E-6 
 95 18.2083 1.023391  2.975310E-6 
 96 17.6350 0.991213 -1.130857E-6 
 97 -0.3668 1.034654  4.512398E-6 
 98 18.2083 1.015833  2.085898E-6 
 99 16.9853 0.994194 -7.738976E-7 
100 5.6338 1.037296  5.029438E-6 
101 -0.7108 1.015676  2.138685E-6 
102 -19.4388 1.029558  4.079794E-6 
103 18.5906 1.010268  1.433820E-6 
104 -17.7571 1.012211  1.725114E-6 
105 18.6288 0.985084 -2.131719E-6 
106 -19.3623 1.011729  1.695814E-6 
107 0.7034 0.998982 -1.488831E-7 
108 12.0931 1.020276  2.999876E-6 
109 0.0919 1.012798  1.915450E-6 
110 0.3212 1.006423  9.723240E-7 
111 18.4377 1.048381  7.408867E-6 
112 3.5317 1.036676  5.680961E-6 
113 2.3087 0.996308 -5.785073E-7 
114 18.8581 1.032335  5.124083E-6 
115 1.9647 0.992710 -1.168401E-6 
116 7.9271 0.982433 -2.847759E-6 
117 -0.3286 1.009349  1.532778E-6 
118 16.7560 1.011943  1.980241E-6 
119 17.9026 1.001257  2.108630E-7 
120 15.7622 1.014053  2.383245E-6 
121 18.2848 1.023443  4.020351E-6 
122 -3.0040 1.017020  2.951729E-6 
123 1.6589 1.019331  3.390066E-6 
124 2.9966 1.032753  5.808065E-6 
125 -10.9156 1.011772  2.110753E-6 
126 -10.1130 1.003087  5.596788E-7 
127 2.4615 1.010227  1.874767E-6 
128 7.8124 0.998109 -3.504307E-7 
129 18.6288 1.016510  3.093864E-6 
130 -16.3811 1.003194  6.051397E-7 
131 4.3726 1.019117  3.661533E-6 
132 0.3594 1.017223  3.334980E-6 
133 -19.4006 1.002187  4.280404E-7 
134 2.0029 0.998578 -2.813070E-7 
135 16.7942 1.013520  2.704211E-6 
136 -0.3286 1.023667  4.785211E-6 
137 18.9345 1.024567  5.020749E-6 
138 5.4045 1.006174  1.275262E-6 
139 -1.9720 1.022530  4.703861E-6 
140 18.2848 1.013171  2.779340E-6 
141 18.1701 1.001076  2.295459E-7 
142 10.7936 1.012344  2.660683E-6 
143 17.9790 1.003657  7.965222E-7 
144 1.6589 1.016392  3.608318E-6 
145 -19.7828 1.014773  3.286081E-6 
146 3.2642 1.008767  1.970640E-6 
147 0.7798 1.007434  1.688429E-6 
148 7.3155 0.992157 -1.800093E-6 
149 0.6270 1.028302  6.562986E-6 
150 0.4741 1.021443  5.024055E-6 
151 -0.3286 1.045009  1.065456E-5 
152 5.7103 1.022646  5.416115E-6 
153 3.9521 1.024314  5.874733E-6 
154 4.7165 1.029589  7.222553E-6 
155 -17.1073 1.043879  1.082005E-5 
156 16.4502 1.008049  2.004935E-6 
157 2.6144 1.003803  9.570493E-7 
158 18.5523 1.022663  5.760375E-6 
159 17.1382 1.013810  3.545421E-6 
160 12.3224 1.027895  7.233487E-6 
161 17.2146 1.022516  5.897219E-6 
162 -19.9739 1.009158  2.422510E-6 
163 17.4057 1.008280  2.212085E-6 
164 15.8769 1.014035  3.786804E-6 
165 6.9333 1.009547  2.601445E-6 
166 17.5586 1.037075  1.020181E-5 
167 5.2516 1.033775  9.385082E-6 
168 -19.9739 1.006954  1.951211E-6 
169 -18.7126 1.036527  1.034935E-5 
170 1.8500 0.993559 -1.842800E-6 
171 15.1507 1.013553  3.914908E-6 
172 -0.9019 1.008412  2.453424E-6 
173 17.5968 1.038827  1.143319E-5 
174 18.5523 1.026909  7.999850E-6 
175 18.2466 1.002708  8.127060E-7 
176 17.2146 1.040825  1.237016E-5 
177 2.4233 1.018078  5.529885E-6 
178 1.0474 1.022935  7.081995E-6 
179 3.0348 1.033028  1.029495E-5 
180 -2.9658 1.019713  6.202408E-6 
181 -1.4752 1.005225  1.659384E-6 
182 16.3355 1.005687  1.822983E-6 
183 4.2961 1.005410  1.750577E-6 
184 1.2385 1.001956  6.386134E-7 
185 2.1558 0.990741 -3.051622E-6 
186 -1.6663 1.005962  1.983088E-6 
187 -17.0691 1.014063  4.720967E-6 
188 -17.2602 1.018070  6.121738E-6 
189 5.0605 1.011267  3.851910E-6 
190 1.7353 1.028563  9.853926E-6 
191 -4.3417 1.000718  2.500728E-7 
192 11.9020 0.977359 -7.953063E-6 
193 1.1620 0.999321 -2.406005E-7 
194 17.7879 1.014140  5.057031E-6 
195 -14.8523 1.019894  7.178708E-6 
196 -18.4833 1.020946  7.625723E-6 
197 -7.0936 1.002968  1.090265E-6 
198 1.4296 1.023297  8.633317E-6 
199 4.8694 1.015738  5.883738E-6 
200 5.6720 0.994262 -2.164183E-6 
201 2.8820 1.014064  5.350831E-6 
202 16.6413 1.026581  1.020182E-5 
203 17.9790 1.008093  3.133361E-6 
204 16.8706 1.016264  6.351710E-6 
205 1.1238 0.999618 -1.505879E-7 
206 4.5254 1.028775  1.143311E-5 
207 13.8512 1.008260  3.310313E-6 
208 1.4678 1.030351  1.226820E-5 
209 -18.9037 1.015556  6.341833E-6 
210 16.9471 1.038856  1.597587E-5 
211 0.2830 1.007509  3.113765E-6 
212 5.8249 1.000716  2.993957E-7 
213 2.1175 1.022396  9.445027E-6 
214 17.1382 1.019018  8.087927E-6 
215 2.8437 1.015748  6.753847E-6 
216 -1.5134 1.015784  6.825928E-6 
217 14.8832 1.012321  5.372826E-6 
218 -12.4062 1.038917  1.711207E-5 
219 1.3914 1.010623  4.709703E-6 
220 0.8181 1.005824  2.603654E-6 
221 0.5123 1.002911  1.312170E-6 
222 17.2911 1.013459  6.115961E-6 
223 2.4233 1.040349  1.848610E-5 
224 -0.3668 1.010919  5.043499E-6 
225 6.3982 1.016186  7.537220E-6 
226 6.9715 1.010179  4.778701E-6 
227 18.2083 1.023365  1.105739E-5 
228 5.4045 1.034156  1.629516E-5 
229 -7.7433 0.995761 -2.038611E-6 
230 17.5968 1.027321  1.324432E-5 
231 -1.7045 1.035770  1.747916E-5 
232 2.7291 1.052769  2.599174E-5 
233 0.3212 1.038398  1.906369E-5 
234 -1.3987 1.021728  1.087309E-5 
235 1.1238 1.036901  1.861172E-5 
236 17.1382 1.001526  7.759773E-7 
237 -19.8210 1.025769  1.320226E-5 
238 3.2642 1.024862  1.283736E-5 
239 8.5386 1.010471  5.448782E-6 
240 7.8124 1.012200  6.397800E-6 
241 2.0411 1.006301  3.330198E-6 
242 16.6795 0.991183 -4.696027E-6 
243 17.6350 1.021827  1.171481E-5 
244 17.8644 1.000853  4.615713E-7 
245 18.5906 0.993908 -3.320179E-6 
246 17.9790 1.012098  6.643745E-6 
247 -0.7490 1.010563  5.844609E-6 
248 1.4296 1.029038  1.619000E-5 
249 -17.1073 1.000288  1.615476E-7 
250 5.6338 1.020257  1.146589E-5 
251 5.3281 0.998344 -9.444053E-7 
252 3.6846 0.999594 -2.331127E-7 
253 8.5004 1.017632  1.020661E-5 
254 4.7930 1.031563  1.840726E-5 
255 17.7879 0.990389 -5.646799E-6 
256 -1.2458 1.009849  5.829658E-6 
257 17.8644 1.016149  9.628942E-6 
258 18.6670 0.992866 -4.285467E-6 
259 4.9076 1.009138  5.529491E-6 
260 -0.9401 1.034976  2.131920E-5 
261 14.0805 1.012179  7.477607E-6 
262 1.1238 1.019284  1.192673E-5 
263 7.6213 1.010296  6.414497E-6 
264 18.6288 1.036285  2.276871E-5 
265 17.6350 1.013127  8.296689E-6 
266 6.2071 1.029022  1.847524E-5 
267 -0.9019 1.030875  1.979623E-5 
268 1.3149 1.008397  5.422553E-6 
269 18.4759 1.020362  1.324338E-5 
270 -17.9864 1.012622  8.268074E-6 
271 18.2466 1.004992  3.293414E-6 
272 17.2528 1.033912  2.253043E-5 
273 -10.4570 1.035284  2.360769E-5 
274 -17.6806 1.009306  6.270059E-6 
275 18.2466 1.040780  2.767034E-5 
276 -19.8592 1.033518  2.290258E-5 
277 18.4377 0.996224 -2.598403E-6 
278 5.2134 1.019854  1.375634E-5 
279 1.0856 1.003984  2.779590E-6 
280 1.8500 1.011208  7.873969E-6 
281 -12.3298 1.007260  5.135819E-6 
282 4.3343 0.996669 -2.372805E-6 
283 5.9396 1.026472  1.898472E-5 
284 15.7622 1.019714  1.423511E-5 
285 5.9014 1.014445  1.050182E-5 
286 -19.4006 1.021376  1.564726E-5 
287 -18.5215 1.017500  1.289673E-5 
288 14.6156 1.031223  2.316626E-5 
289 0.8563 1.018750  1.400604E-5 
290 16.3355 1.007766  5.840238E-6 
291 2.0793 1.035030  2.652096E-5 
292 3.6081 1.034989  2.666802E-5 
293 18.4377 1.004316  3.311425E-6 
294 6.9715 1.022307  1.722975E-5 
295 17.2528 0.989376 -8.260280E-6 
296 17.3293 1.028249  2.211061E-5 
297 4.4108 1.010448  8.232075E-6 
298 2.7291 0.997388 -2.071908E-6 
299 8.7297 0.991797 -6.549060E-6 
300 0.5505 1.030074  2.416645E-5 
301 17.0235 1.013581  1.098513E-5 
302 15.9151 1.014159  1.152757E-5 
303 18.3995 1.003057  2.505076E-6 
304 2.6526 1.018471  1.523451E-5 
305 7.0862 1.015459  1.283277E-5 
306 17.5204 1.027513  2.298638E-5 
307 2.8820 1.009044  7.605066E-6 
308 3.4553 1.044950  3.804074E-5 
309 16.3355 1.015090  1.285277E-5 
310 4.6019 1.015534  1.331572E-5 
311 3.3788 0.989620 -8.954355E-6 
312 7.8506 0.993869 -5.322378E-6 
313 18.8199 1.015232  1.330783E-5 
314 -0.4050 1.014117  1.241212E-5 
315 7.6595 1.028466  2.518598E-5 
316 18.0937 1.037742  3.360295E-5 
317 5.5192 1.023877  2.139262E-5 
318 17.5968 1.026825  2.418461E-5 
319 16.9471 1.028175  2.556034E-5 
320 -13.3999 1.011623  1.061068E-5 
321 19.1256 1.032092  2.947777E-5 
322 1.3914 1.037991  3.511306E-5 
323 2.7291 1.011811  1.098438E-5 
324 0.8563 1.002324  2.174322E-6 
325 19.0874 1.001154  1.086741E-6 
326 -19.3623 1.013395  1.268878E-5 
327 4.1815 1.017922  1.708150E-5 
328 -13.0560 1.029296  2.809266E-5 
329 -8.4695 1.011432  1.102913E-5 
330 -15.3110 1.032264  3.131737E-5 
331 -17.1073 1.016062  1.568504E-5 
332 1.2767 1.033319  3.273478E-5 
333 17.7879 1.000807  7.980752E-7 
334 3.1877 1.025959  2.581289E-5 
335 0.7416 1.003193  3.194549E-6 
336 -5.4501 0.994073 -5.964379E-6 
337 1.8500 0.982859 -1.735372E-5 
338 -16.0754 1.008817  8.979186E-6 
339 -19.5152 1.039191  4.015129E-5 
340 17.9790 1.017866  1.841206E-5 
341 17.5586 1.009784  1.014313E-5 
342 3.1495 1.019432  2.026388E-5 
343 2.3087 1.030369  3.185618E-5 
344 4.0286 1.009478  1.000128E-5 
345 -19.9356 1.007277  7.723273E-6 
346 17.8261 1.004438  4.738213E-6 
347 17.7879 1.030498  3.274958E-5 
348 1.5060 1.008317  8.983205E-6 
349 -19.4770 1.036968  4.016096E-5 
350 17.3293 1.025444  2.780206E-5 
351 2.0029 1.000232  2.548884E-7 
352 5.8249 1.002052  2.267712E-6 
353 5.5956 1.004785  5.319365E-6 
354 -4.4564 1.023111  2.584019E-5 
355 15.4183 0.999310 -7.754562E-7 
356 15.9151 1.008204  9.277977E-6 
357 3.4170 1.012514  1.423328E-5 
358 -0.6343 1.008672  9.919399E-6 
359 -0.7490 1.029677  3.413995E-5 
360 16.6031 1.013982  1.617553E-5 
361 17.1382 1.045642  5.310306E-5 
362 -0.1375 1.023311  2.727493E-5 
363 14.7685 1.029653  3.488996E-5 
364 1.3531 0.991864 -9.627184E-6 
365 17.5204 1.014519  1.727556E-5 
366 -18.7508 0.998095 -2.279412E-6 
367 -16.8398 1.002999  3.608894E-6 
368 3.9521 1.016440  1.989127E-5 
369 17.4822 1.032062  3.900778E-5 
370 17.2911 1.018066  2.210106E-5 
371 16.9853 1.032808  4.035822E-5 
372 1.5060 1.033372  4.127952E-5 
373 18.8581 1.034276  4.263008E-5 
374 -10.9921 1.017680  2.211050E-5 
375 14.3099 1.011198  1.408087E-5 
376 -19.9739 1.021442  2.710950E-5 
377 -6.0234 1.002980  3.787922E-6 
378 1.3914 1.011527  1.473338E-5 
379 -13.9733 1.022771  2.926345E-5 
380 18.0172 1.005916  7.644307E-6 
381 17.2911 1.029814  3.873014E-5 
382 -16.8780 1.006562  8.570244E-6 
383 -2.0867 1.037024  4.861648E-5 
384 4.4490 1.009332  1.231989E-5 
385 -10.6099 1.040023  5.312025E-5 
386 -2.3542 1.018384  2.453066E-5 
387 17.1382 1.013690  1.836436E-5 
388 -0.6725 0.988912 -1.495326E-5 
389 18.4759 1.027178  3.684783E-5 
390 -6.8260 1.024647  3.359317E-5 
391 -19.3623 1.013356  1.830056E-5 
392 -1.3987 1.013339  1.837339E-5 
393 3.7610 1.038011  5.263380E-5 
394 3.1877 1.018692  2.601902E-5 
395 18.3612 1.022738  3.181719E-5 
396 17.1764 1.015120  2.126851E-5 
397 17.9408 1.011983  1.694341E-5 
398 -1.3223 1.029450  4.186015E-5 
399 18.8199 1.014988  2.141479E-5 
400 18.3230 1.028637  4.112829E-5 
401 17.4822 1.005562  8.029145E-6 
402 4.0668 1.013147  1.907804E-5 
403 1.6971 1.010878  1.586721E-5 
404 17.4822 1.003174  4.652991E-6 
405 -8.3548 1.011014  1.623105E-5 
406 17.0617 0.987289 -1.882815E-5 
407 18.2848 1.019378  2.885078E-5 
408 5.2516 1.042653  6.382696E-5 
409 2.6144 0.983608 -2.465409E-5 
410 18.7817 1.016100  2.433794E-5 
411 1.3531 1.020187  3.067209E-5 
412 4.7930 1.026533  4.051800E-5 
413 -2.8893 0.997060 -4.512359E-6 
414 0.6270 1.024791  3.824124E-5 
415 -1.4370 1.028416  4.405366E-5 
416 -1.2841 1.021502  3.350216E-5 
417 17.2528 1.016251  2.544771E-5 
418 18.6670 1.016650  2.620320E-5 
419 -0.4050 1.010806  1.709201E-5 
420 16.2591 1.033449  5.316863E-5 
421 18.5906 1.047194  7.539106E-5 
422 -1.5898 1.002971  4.770026E-6 
423 2.3087 1.005228  8.434715E-6 
424 0.5887 0.999328 -1.089545E-6 
425 0.4358 1.028386  4.625109E-5 
426 16.6413 1.007451  1.220016E-5 
427 17.3675 1.022693  3.734039E-5 
428 -19.3623 1.036024  5.956600E-5 
429 8.0799 0.999692 -5.113811E-7 
430 -18.5215 1.043282  7.226949E-5 
431 5.8632 1.044503  7.466981E-5 
432 1.7736 1.023524  3.966206E-5 
433 3.1113 1.008781  1.487793E-5 
434 0.4358 1.026525  4.515863E-5 
435 1.0856 1.005804  9.928550E-6 
436 17.6350 1.030379  5.222117E-5 
437 18.0555 0.995973 -6.955357E-6 
438 3.9903 1.021680  3.762732E-5 
439 2.7673 0.997326 -4.663314E-6 
440 16.9853 1.001835  3.216141E-6 
441 17.4822 1.033188  5.843294E-5 
442 -19.7828 1.002855  5.050492E-6 
443 16.8324 1.040152  7.137013E-5 
444 10.0292 1.011478  2.049988E-5 
445 5.7867 1.030444  5.463137E-5 
446 4.5254 1.041021  7.396032E-5 
447 -12.7120 0.994452 -1.004958E-5 
448 -18.4450 1.007425  1.351311E-5 
449 18.7052 1.016893  3.089139E-5 
450 2.6526 1.013716  2.520034E-5 
451 5.5192 1.023729  4.380056E-5 
452 0.3212 0.977206 -4.227192E-5 
453 2.1940 1.005030  9.372194E-6 
454 17.5204 1.000383  7.161244E-7 
455 3.8375 1.031783  5.977278E-5 
456 -15.4256 1.014761  2.788964E-5 
457 16.7560 1.029683  5.634380E-5 
458 -2.7364 0.999835 -3.142402E-7 
459 15.8387 1.009021  1.728224E-5 
460 -0.8254 1.003356  6.459069E-6 
461 4.5637 0.993672 -1.223597E-5 
462 18.1319 1.025668  4.985684E-5 
463 4.5637 1.028760  5.611991E-5 
464 15.6858 1.009244  1.812135E-5 
465 -19.7445 1.012330  2.427991E-5 
466 6.3600 1.011749  2.324130E-5 
467 -1.5516 1.012387  2.461518E-5 
468 0.8181 1.033121  6.612007E-5 
469 3.6081 1.010173  2.040130E-5 
470 17.7497 1.010768  2.169192E-5 
471 16.4120 1.018064  3.655372E-5 
472 18.3995 1.031038  6.309247E-5 
473 18.5906 1.001681  3.431588E-6 
474 5.4045 1.014206  2.913833E-5 
475 18.1701 0.996296 -7.630803E-6 
476 6.2836 1.019741  4.085503E-5 
477 -10.5716 1.018192  3.781706E-5 
478 16.3738 1.008121  1.695728E-5 
479 2.6526 1.046442  9.740823E-5 
480 5.1370 1.001393  2.934851E-6 
481 4.2197 1.018960  4.012225E-5 
482 -2.3542 1.036803  7.822593E-5 
483 6.7040 1.021153  4.516126E-5 
484 2.6526 1.024027  5.152381E-5 
485 -1.8956 1.018704  4.028640E-5 
486 0.7798 1.025785  5.578213E-5 
487 5.6338 0.996500 -7.606009E-6 
488 1.2003 1.023304  5.086051E-5 
489 6.6276 1.027124  5.945654E-5 
490 18.3995 1.022105  4.866615E-5 
491 19.1256 1.003801  8.404562E-6 
492 18.3230 1.025915  5.755487E-5 
493 2.7673 1.010721  2.391443E-5 
494 -17.3367 1.029297  6.563135E-5 
495 -16.4194 1.033023  7.429976E-5 
496 5.1752 1.026156  5.910503E-5 
497 0.9327 1.024167  5.484616E-5 
498 1.9264 1.016393  3.736335E-5 
499 3.1113 1.027957  6.399564E-5 
500 17.1000 1.021966  5.049798E-5 
501 -18.5215 1.025544  5.897569E-5 
502 -2.4307 1.029864  6.924563E-5 
503 3.4170 1.036849  8.580773E-5 
504 4.2961 1.024005  5.613734E-5 
505 0.5887 1.035899  8.431250E-5 
506 -18.8655 1.029508  6.959727E-5 
507 -9.8454 1.018224  4.316461E-5 
508 4.0286 0.995765 -1.007372E-5 
509 -1.0165 1.029172  6.968504E-5 
510 2.1558 1.011382  2.730329E-5 
511 4.1815 1.000327  7.884868E-7 
512 17.9026 1.024420  5.907507E-5 
513 18.2466 0.997385 -6.352633E-6 
514 5.9778 1.023081  5.630742E-5 
515 -1.2076 1.012535  3.070718E-5 
516 7.5448 1.020216  4.973180E-5 
517 -7.2847 1.023334  5.764330E-5 
518 17.4057 1.009112  2.260318E-5 
519 -0.7872 1.015230  3.793693E-5 
520 4.8312 1.004865  1.216914E-5 
521 3.8757 0.999636 -9.151203E-7 
522 2.6909 0.992115 -1.988675E-5 
523 18.4377 1.010815  2.739151E-5 
524 -0.0992 1.024745  6.292890E-5 
525 -19.8210 1.021551  5.503345E-5 
526 2.8820 1.004106  1.052908E-5 
527 16.2209 1.012617  3.248350E-5 
528 0.8945 1.008775  2.268595E-5 
529 16.2973 1.053136  1.379316E-4 
530 -19.7063 1.025722  6.704378E-5 
531 2.6144 0.986330 -3.577583E-5 
532 18.3995 1.033061  8.687832E-5 
533 5.5574 1.014684  3.874426E-5 
534 4.1815 0.997196 -7.427665E-6 
535 1.6207 1.021398  5.692004E-5 
536 3.5317 1.003224  8.610054E-6 
537 -15.3492 1.014173  3.800656E-5 
538 0.3976 1.032242  8.681023E-5 
539 3.6081 0.998013 -5.372592E-6 
540 18.7052 1.017243  4.680032E-5 
541 0.1301 1.007786  2.121711E-5 
542 -0.6725 1.004362  1.193437E-5 
543 6.0925 1.018076  4.965507E-5 
544 16.1827 1.023682  6.531614E-5 
545 -10.4952 1.018665  5.168366E-5 
546 3.2259 1.033065  9.192672E-5 
547 11.0611 1.015323  4.277017E-5 
548 18.0937 1.026977  7.559752E-5 
549 4.7165 0.996563 -9.669154E-6 
550 -0.6343 1.002438  6.886272E-6 
551 6.1689 0.999431 -1.612661E-6 
552 0.3976 1.023103  6.577398E-5 
553 18.4759 1.035632  1.018453E-4 
554 -19.7828 1.005878  1.686795E-5 
555 -19.9739 1.024150  6.957345E-5 
