Filename:	Wind_Profile_100_20181024_053510.hpl
System ID:	100
Number of gates:	556
Range gate length (m):	18.0
Gate length (pts):	6
Pulses/ray:	1500
No. of rays in file:	3
Scan type:	Wind profile
Focus range:	65535
Start time:	20181024 05:35:17.07
Resolution (m/s):	0.0382
Altitude of measurement (center of gate) = (range gate + 0.5) * Gate length
Data line 1: Decimal time (hours)  Azimuth (degrees)  Elevation (degrees) Pitch (degrees) Roll (degrees)
f9.6,1x,f6.2,1x,f6.2
Data line 2: Range Gate  Doppler (m/s)  Intensity (SNR + 1)  Beta (m-1 sr-1)
i3,1x,f6.4,1x,f8.6,1x,e12.6 - repeat for no. gates
****
 5.588047  91.00  90.00 -0.00 0.09
  0 -0.0610 0.960004 -2.251942E-6
  1 -1.2076 0.956507 -2.450501E-6
  2 4.9459 1.037595  2.120141E-6
  3 -0.0228 1.021185  1.196124E-6
  4 -19.0948 1.041665  2.355882E-6
  5 -17.8335 1.003518  1.992845E-7
  6 0.7798 1.011760  6.673498E-7
  7 -0.0228 1.019589  1.114105E-6
  8 -0.7490 0.998886 -6.351520E-8
  9 1.6971 1.041376  2.365411E-6
 10 9.9527 0.999493 -2.908186E-8
 11 9.3030 0.994314 -3.270422E-7
 12 19.0110 1.013225  7.633298E-7
 13 3.2259 1.037231  2.156891E-6
 14 -0.9401 1.027788  1.616188E-6
 15 3.7228 0.999455 -3.183674E-8
 16 -0.1757 1.015736  9.230668E-7
 17 -3.0040 1.017845  1.051664E-6
 18 10.9465 1.017808  1.054559E-6
 19 0.7798 1.032759  1.949844E-6
 20 0.2447 1.018024  1.078490E-6
 21 15.9533 1.011714  7.048398E-7
 22 -1.4370 0.997385 -1.582305E-7
 23 -19.5534 1.035934  2.187550E-6
 24 -0.6343 1.050835  3.113766E-6
 25 2.0793 1.013189  8.129943E-7
 26 -0.7490 1.011299  7.010948E-7
 27 0.5505 1.051369  3.208988E-6
 28 -1.1312 1.026552  1.670278E-6
 29 0.2830 1.033875  2.146216E-6
 30 -0.0228 1.031869  2.033968E-6
 31 0.3594 1.024764  1.592395E-6
 32 0.5505 1.019114  1.238541E-6
 33 -0.7872 1.016108  1.051982E-6
 34 0.4358 1.021162  1.393238E-6
 35 3.8375 1.015665  1.039808E-6
 36 -0.9783 1.008338  5.580911E-7
 37 5.2134 1.003806  2.569055E-7
 38 -19.4006 1.006645  4.524411E-7
 39 -17.9864 0.995704 -2.950944E-7
 40 -5.0679 1.003149  2.182689E-7
 41 17.7497 1.008348  5.838541E-7
 42 9.8381 1.002754  1.943761E-7
 43 17.4822 1.025189  1.794733E-6
 44 -18.8655 0.984178 -1.138082E-6
 45 18.8963 1.015007  1.089826E-6
 46 -5.8323 1.010584  7.761521E-7
 47 18.3230 0.987459 -9.286976E-7
 48 17.1382 1.013602  1.017383E-6
 49 15.4565 1.013734  1.037605E-6
 50 2.8437 1.007035  5.369195E-7
 51 5.7485 1.016222  1.250760E-6
 52 18.5523 1.016309  1.270547E-6
 53 4.2197 1.011601  9.132627E-7
 54 10.4114 1.013135  1.044913E-6
 55 16.9471 1.034708  2.790524E-6
 56 -18.5979 1.005994  4.870755E-7
 57 -19.4006 1.006089  5.001669E-7
 58 18.7434 1.007171  5.954289E-7
 59 5.0223 1.001394  1.169909E-7
 60 -1.6663 0.996837 -2.684036E-7
 61 -18.8272 1.016981  1.457147E-6
 62 17.8261 1.015723  1.364259E-6
 63 -19.6299 1.003512  3.081446E-7
 64 19.0110 1.003990  3.540222E-7
 65 -9.6161 1.012879  1.155576E-6
 66 16.7178 1.015256  1.384469E-6
 67 -19.5917 1.001256  1.152694E-7
 68 -10.4952 1.033655  3.124213E-6
 69 8.3857 1.035149  3.300370E-6
 70 17.6733 0.996095 -3.708857E-7
 71 18.5523 1.002087  2.004954E-7
 72 18.1701 1.000737  7.158727E-8
 73 17.5968 1.010745  1.056382E-6
 74 14.7685 0.999910 -8.963787E-9
 75 18.6288 1.019097  1.921603E-6
 76 5.0223 0.993933 -6.176025E-7
 77 0.9327 0.999312 -7.086451E-8
 78 18.2083 1.009647  1.005183E-6
 79 5.6720 1.025837  2.723853E-6
 80 4.0668 1.029189  3.113505E-6
 81 4.9459 1.007690  8.298990E-7
 82 -19.3241 0.985350 -1.599666E-6
 83 -18.1011 1.013564  1.498623E-6
 84 17.4057 0.997424 -2.880017E-7
 85 15.9916 1.000401  4.531593E-8
 86 16.4120 1.008085  9.253261E-7
 87 17.7497 1.008860  1.025981E-6
 88 -19.6299 0.997098 -3.399981E-7
 89 -3.2333 1.018686  2.215186E-6
 90 -19.0566 1.019730  2.366629E-6
 91 17.6733 1.017134  2.079503E-6
 92 17.1764 0.992344 -9.401125E-7
 93 13.6983 1.008290  1.030034E-6
 94 7.0098 1.020413  2.566261E-6
 95 8.3093 1.022022  2.801140E-6
 96 -9.4250 0.990729 -1.193144E-6
 97 -18.8272 1.016419  2.137997E-6
 98 -17.2602 1.042475  5.595754E-6
 99 12.4371 1.012022  1.602351E-6
100 17.7879 0.994678 -7.176574E-7
101 18.0937 1.025363  3.460327E-6
102 17.2146 1.014121  1.949063E-6
103 -1.2076 1.001446  2.018600E-7
104 -19.1712 1.028247  3.990466E-6
105 -16.9544 0.993537 -9.236348E-7
106 18.0937 1.017150  2.479557E-6
107 5.7103 1.003393  4.962014E-7
108 10.1821 1.002000  2.958303E-7
109 18.5141 1.018017  2.696519E-6
110 -9.5397 0.987319 -1.919724E-6
111 -0.3668 1.011182  1.712368E-6
112 -19.7445 1.003475  5.382195E-7
113 14.1570 1.023669  3.708303E-6
114 18.0937 1.014141  2.240874E-6
115 17.9790 1.022071  3.537521E-6
116 -19.9739 1.000944  1.530633E-7
117 7.6977 0.992151 -1.286876E-6
118 -19.4770 0.991963 -1.332608E-6
119 13.5455 1.020373  3.416417E-6
120 18.0172 1.005819  9.867617E-7
121 9.9527 1.009686  1.661045E-6
122 17.9026 1.013309  2.308179E-6
123 18.2466 0.994120 -1.031105E-6
124 3.2259 1.033307  5.906245E-6
125 3.6846 0.988508 -2.060630E-6
126 15.6476 0.998175 -3.308788E-7
127 18.9728 0.997742 -4.139560E-7
128 18.2466 1.007846  1.454227E-6
129 10.2585 0.999464 -1.005223E-7
130 15.5329 1.000526  9.969630E-8
131 2.0029 1.015264  2.923475E-6
132 6.4365 1.008354  1.617540E-6
133 5.7103 1.027316  5.346999E-6
134 18.1319 1.012960  2.564525E-6
135 8.2328 1.006704  1.341052E-6
136 7.4684 1.016449  3.325701E-6
137 8.7679 1.012359  2.525732E-6
138 17.3675 1.003404  7.032526E-7
139 18.6670 1.020746  4.331527E-6
140 18.9345 1.017309  3.652571E-6
141 19.1256 1.009970  2.126240E-6
142 13.8894 1.031254  6.736405E-6
143 9.8381 1.010096  2.199237E-6
144 18.7434 1.020138  4.432788E-6
145 17.5204 1.006297  1.400698E-6
146 17.8261 1.013104  2.945550E-6
147 18.0555 1.011207  2.545597E-6
148 17.8261 1.005069  1.163254E-6
149 16.2973 1.019873  4.608512E-6
150 18.2466 1.009059  2.122506E-6
151 16.8324 1.023650  5.598396E-6
152 -7.5522 0.984972 -3.594253E-6
153 16.8706 1.010908  2.635565E-6
154 5.5574 1.017060  4.164216E-6
155 0.2447 0.983377 -4.099083E-6
156 17.0235 1.012685  3.159794E-6
157 -6.6732 1.005566  1.400585E-6
158 8.4621 1.017601  4.473613E-6
159 9.3412 1.016054  4.121707E-6
160 6.7040 1.001835  4.759558E-7
161 15.0361 0.998804 -3.132843E-7
162 17.2528 1.017483  4.624824E-6
163 7.5831 1.013828  3.694276E-6
164 -18.7126 1.012097  3.263812E-6
165 6.9333 1.007049  1.920785E-6
166 -19.4770 1.019669  5.412207E-6
167 -19.1712 0.999164 -2.321970E-7
168 16.6031 0.992338 -2.149946E-6
169 9.6470 0.997030 -8.415879E-7
170 10.6025 1.017874  5.113416E-6
171 -2.3925 0.999676 -9.369808E-8
172 -17.7189 1.008040  2.345026E-6
173 12.4753 1.015176  4.468931E-6
174 18.7052 1.017872  5.313354E-6
175 16.4884 0.994827 -1.552530E-6
176 17.0235 1.005566  1.686402E-6
177 -18.4833 1.004711  1.440982E-6
178 17.8644 1.005417  1.672613E-6
179 19.0492 0.979561 -6.370889E-6
180 18.3230 1.030032  9.449088E-6
181 17.7497 1.027476  8.726187E-6
182 18.7817 0.991957 -2.578313E-6
183 -17.3367 1.031106  1.006454E-5
184 16.5266 1.014567  4.757009E-6
185 14.8067 1.002162  7.127082E-7
186 18.4759 1.005504  1.830953E-6
187 18.3230 1.014462  4.854678E-6
188 17.9408 1.019680  6.666940E-6
189 18.0172 0.996333 -1.253589E-6
190 18.5906 1.017168  5.922687E-6
191 -18.4833 1.009822  3.419217E-6
192 17.7115 1.012503  4.391920E-6
193 19.0110 1.021640  7.670080E-6
194 8.9590 1.016494  5.898639E-6
195 4.2197 1.017526  6.324083E-6
196 18.5906 1.006254  2.277031E-6
197 0.8945 1.026224  9.632229E-6
198 -19.6299 0.988870 -4.124384E-6
199 7.6977 1.024965  9.333343E-6
200 0.1683 1.011175  4.214667E-6
201 9.4941 1.007679  2.921619E-6
202 8.9590 1.011629  4.463470E-6
203 6.8569 1.024802  9.602384E-6
204 16.2973 1.011561  4.515060E-6
205 -9.7690 1.020363  8.021305E-6
206 -1.0930 1.011880  4.720371E-6
207 17.8261 1.016116  6.458815E-6
208 -19.4770 1.020246  8.183791E-6
209 17.2146 1.027231  1.110141E-5
210 10.2585 1.000598  2.458069E-7
211 18.8581 1.000298  1.236940E-7
212 3.8375 1.014976  6.262588E-6
213 10.7936 0.993478 -2.750348E-6
214 17.4439 1.007963  3.386725E-6
215 17.1382 1.014852  6.369495E-6
216 18.7434 1.010222  4.420467E-6
217 -19.8974 0.995440 -1.988465E-6
218 10.1821 0.995552 -1.955730E-6
219 7.4684 0.993010 -3.099029E-6
220 18.8963 1.009916  4.432536E-6
221 -19.8210 0.993998 -2.705384E-6
222 15.2654 0.986038 -6.344510E-6
223 17.2528 1.025687  1.176844E-5
224 17.1764 1.005396  2.492386E-6
225 16.7560 0.975694 -1.131865E-5
226 7.2391 1.018169  8.529282E-6
227 -18.0246 1.007251  3.431393E-6
228 18.0937 1.020499  9.779362E-6
229 -19.5534 1.000964  4.634175E-7
230 18.0937 1.001960  9.499295E-7
231 -18.9801 1.007749  3.786735E-6
232 15.8769 1.023083  1.136971E-5
233 6.8187 1.041356  2.053207E-5
234 17.7497 1.003138  1.570116E-6
235 17.9408 1.014519  7.323014E-6
236 17.1764 1.014347  7.292989E-6
237 18.2466 1.002261  1.158573E-6
238 -19.1330 0.987118 -6.651819E-6
239 7.1244 1.036090  1.878064E-5
240 2.0411 1.007555  3.962266E-6
241 -19.6681 1.004166  2.201994E-6
242 15.9151 0.999873 -6.775537E-8
243 17.9026 1.022567  1.211145E-5
244 -2.6600 0.994408 -3.024484E-6
245 4.0668 1.007659  4.173775E-6
246 15.9916 1.004103  2.252969E-6
247 -19.7828 0.996427 -1.977130E-6
248 9.9527 1.002656  1.481048E-6
249 17.8644 1.011429  6.420412E-6
250 12.7046 1.028488  1.612461E-5
251 -0.9783 1.002181  1.244018E-6
252 18.7052 1.006608  3.796727E-6
253 12.2460 0.991582 -4.872659E-6
254 -19.4388 1.011813  6.889160E-6
255 10.5260 1.004779  2.807790E-6
256 -19.8592 0.999102 -5.316474E-7
257 9.0354 1.011343  6.763718E-6
258 16.8706 1.018880  1.134076E-5
259 -19.7445 1.009187  5.558791E-6
260 17.6733 1.000942  5.742338E-7
261 6.5511 0.983251 -1.028391E-5
262 -19.8210 1.027490  1.700174E-5
263 7.5831 1.011051  6.884470E-6
264 -18.7890 1.014395  9.032980E-6
265 17.2146 0.995185 -3.043487E-6
266 9.7234 1.015059  9.586643E-6
267 -17.5278 1.002246  1.439868E-6
268 17.1000 0.998792 -7.799455E-7
269 3.5699 1.020808  1.353371E-5
270 -8.2402 1.005227  3.423763E-6
271 -3.0804 0.990913 -5.994433E-6
272 9.6852 1.019083  1.267839E-5
273 -8.9282 1.016469  1.101886E-5
274 18.2848 1.009530  6.421328E-6
275 2.1558 1.018813  1.276542E-5
276 -19.9739 1.024535  1.676478E-5
277 -19.2859 1.003938  2.709879E-6
278 -19.0566 1.015609  1.081506E-5
279 -15.9225 1.007092  4.948339E-6
280 17.5586 0.999375 -4.394167E-7
281 10.2967 1.004175  2.953388E-6
282 -18.9419 1.020904  1.488936E-5
283 8.4621 1.001084  7.772843E-7
284 -19.1712 0.999185 -5.882638E-7
285 18.3612 1.014592  1.060859E-5
286 -19.6299 1.007009  5.130307E-6
287 -2.5453 1.002687  1.980302E-6
288 -18.5979 0.997666 -1.731607E-6
289 14.0423 1.004539  3.390420E-6
290 7.9271 1.027349  2.056765E-5
291 1.4296 1.019901  1.506684E-5
292 3.5317 1.003223  2.456852E-6
293 -3.1569 1.023753  1.822483E-5
294 7.2009 0.989460 -8.141494E-6
295 10.7171 1.005278  4.104095E-6
296 16.2209 1.025768  2.016861E-5
297 17.6350 1.017815  1.403600E-5
298 -18.6744 1.019112  1.515757E-5
299 0.1301 1.001885  1.505217E-6
300 4.2961 1.012242  9.837121E-6
301 17.2528 1.012557  1.015629E-5
302 17.9790 1.011289  9.190818E-6
303 7.1626 1.008409  6.890336E-6
304 18.7052 1.024453  2.016776E-5
305 16.6031 0.993393 -5.484909E-6
306 1.9647 1.010085  8.425817E-6
307 15.3800 1.014130  1.188169E-5
308 -18.4068 1.012501  1.057911E-5
309 6.4365 1.013299  1.132706E-5
310 -2.0485 1.026787  2.296124E-5
311 7.9653 0.995872 -3.561179E-6
312 -19.7063 1.000086  7.499658E-8
313 17.5968 1.006631  5.793318E-6
314 17.8644 1.007176  6.309309E-6
315 3.3788 1.003646  3.226064E-6
316 -19.5917 1.004700  4.184921E-6
317 -19.0183 1.013026  1.167021E-5
318 -0.4050 1.010389  9.365924E-6
319 0.7034 1.025401  2.304389E-5
320 17.7115 1.014253  1.301106E-5
321 7.3155 1.004884  4.486302E-6
322 -18.9419 1.005722  5.288848E-6
323 -9.8837 1.019824  1.843616E-5
324 -19.8592 1.005601  5.241374E-6
325 10.5643 0.996417 -3.373355E-6
326 10.1056 1.000836  7.924011E-7
327 18.3230 0.994273 -5.458292E-6
328 17.7497 1.019394  1.859750E-5
329 6.3600 1.006283  6.062040E-6
330 17.5968 1.009256  8.984497E-6
331 -17.9100 1.004764  4.651921E-6
332 10.1821 1.032883  3.230661E-5
333 -19.7063 1.033834  3.344154E-5
334 16.6795 1.004968  4.940344E-6
335 -18.9801 1.002469  2.469754E-6
336 -2.2014 0.991758 -8.293972E-6
337 12.3606 1.002090  2.116041E-6
338 18.5523 0.999356 -6.556955E-7
339 3.3024 1.009750  9.989000E-6
340 16.2973 1.013520  1.393356E-5
341 7.8506 1.011194  1.160438E-5
342 -3.8448 1.004695  4.896126E-6
343 18.8581 1.026847  2.816150E-5
344 17.2911 1.011476  1.210859E-5
345 3.4170 1.008466  8.985367E-6
346 18.3612 1.020822  2.222929E-5
347 -19.7828 1.026598  2.856099E-5
348 4.3726 1.002095  2.262316E-6
349 7.5831 1.007021  7.627171E-6
350 4.0668 1.031548  3.447097E-5
351 -18.9037 1.002574  2.828700E-6
352 18.5523 0.998734 -1.399682E-6
353 -19.6681 1.010382  1.154183E-5
354 -11.2596 0.987648 -1.381071E-5
355 -19.1330 1.007468  8.397974E-6
356 -19.4770 1.014483  1.637998E-5
357 16.6413 1.018609  2.116567E-5
358 19.0492 0.993445 -7.498037E-6
359 -19.9739 1.015461  1.778642E-5
360 -18.4833 1.006821  7.891708E-6
361 18.1701 1.015321  1.782521E-5
362 -19.2859 1.017365  2.031707E-5
363 -17.8717 1.021686  2.551581E-5
364 18.9345 1.016901  1.999771E-5
365 -3.7684 1.021973  2.614516E-5
366 18.3612 1.012814  1.533283E-5
367 -8.2020 1.011243  1.352731E-5
368 -0.4814 1.020789  2.515263E-5
369 18.9728 1.011749  1.429437E-5
370 17.6350 1.014874  1.819596E-5
371 -19.9739 1.012205  1.501393E-5
372 -16.4194 0.993772 -7.703220E-6
373 -5.2590 1.040542  5.042413E-5
374 -17.6806 0.997568 -3.041653E-6
375 18.0555 1.014918  1.875850E-5
376 1.2003 0.997304 -3.408780E-6
377 17.7879 1.019430  2.470000E-5
378 16.7942 1.018550  2.370909E-5
379 16.6413 0.992197 -1.002774E-5
380 -19.6681 1.005775  7.462034E-6
381 -18.8655 1.013501  1.753852E-5
382 14.1570 1.025456  3.324748E-5
383 17.9026 1.009399  1.234134E-5
384 -7.3993 1.009203  1.214969E-5
385 -19.2477 1.018706  2.482803E-5
386 17.4057 1.019398  2.588356E-5
387 17.5968 1.002124  2.848962E-6
388 7.4684 1.015112  2.038077E-5
389 7.3537 1.028305  3.837598E-5
390 -18.9419 1.010590  1.443477E-5
391 -19.0566 1.011880  1.627752E-5
392 -2.0867 1.025627  3.530057E-5
393 18.8581 1.006790  9.401944E-6
394 8.2710 1.014484  2.016183E-5
395 -19.2859 1.013888  1.943422E-5
396 -18.3686 1.002202  3.097634E-6
397 -10.5716 1.000311  4.392024E-7
398 11.6727 1.003242  4.607775E-6
399 17.8644 1.013046  1.863977E-5
400 4.9076 0.995198 -6.896029E-6
401 6.5129 1.013527  1.952761E-5
402 2.5762 1.009578  1.389920E-5
403 2.4615 1.008747  1.275906E-5
404 -18.6744 1.001063  1.558966E-6
405 17.9026 1.003866  5.697496E-6
406 15.9151 0.996869 -4.638062E-6
407 9.1501 1.023981  3.570345E-5
408 -19.1330 1.030984  4.636472E-5
409 6.0925 0.994820 -7.790475E-6
410 -8.9664 1.020059  3.032269E-5
411 18.6670 1.009594  1.457748E-5
412 8.3475 1.009726  1.485229E-5
413 -19.1712 1.019526  2.996866E-5
414 17.9026 1.000939  1.448206E-6
415 18.5906 1.039729  6.159299E-5
416 8.5004 1.004607  7.178679E-6
417 14.3863 1.016095  2.520445E-5
418 17.2911 1.000187  2.946482E-7
419 16.6413 1.016787  2.655077E-5
420 3.7228 1.015436  2.453552E-5
421 19.1256 1.010781  1.722150E-5
422 17.9408 1.016838  2.703144E-5
423 7.8124 1.002352  3.794367E-6
424 -18.8655 0.998317 -2.729139E-6
425 18.2466 1.019619  3.196672E-5
426 16.7942 1.008559  1.401447E-5
427 -19.8592 1.014566  2.396675E-5
428 11.2905 0.998582 -2.344308E-6
429 17.3675 0.994859 -8.541709E-6
430 17.1382 1.008349  1.394125E-5
431 17.8644 1.028318  4.751349E-5
432 -19.6299 0.995585 -7.443917E-6
433 -18.1775 1.026723  4.527475E-5
434 14.8067 1.020156  3.431491E-5
435 -19.1712 1.020431  3.495229E-5
436 -19.4006 1.017193  2.955393E-5
437 -19.8974 1.006211  1.072732E-5
438 -14.9288 1.011038  1.915743E-5
439 -19.4770 1.006889  1.201368E-5
440 -19.4006 1.020168  3.533968E-5
441 5.9778 1.015946  2.807557E-5
442 6.7422 0.992398 -1.344857E-5
443 -18.7890 0.999538 -8.212240E-7
444 14.2334 0.997423 -4.602161E-6
445 17.4057 1.004722  8.472961E-6
446 19.1256 1.003211  5.789479E-6
447 10.5643 1.012032  2.179528E-5
448 12.2077 1.023391  4.257287E-5
449 -19.4006 0.997608 -4.373544E-6
450 4.3726 0.990858 -1.679692E-5
451 18.2848 1.030833  5.691413E-5
452 -19.2095 0.999996 -6.718090E-9
453 8.9590 1.018670  3.478625E-5
454 6.8951 1.007856  1.470510E-5
455 4.4872 1.011500  2.162800E-5
456 13.2779 1.012624  2.385130E-5
457 -6.3292 1.002844  5.398952E-6
458 17.3675 0.997833 -4.132237E-6
459 18.2466 0.994745 -1.006698E-5
460 18.7434 1.004878  9.387797E-6
461 16.6413 1.005398  1.043738E-5
462 6.2454 1.016282  3.162709E-5
463 9.7234 1.027899  5.443964E-5
464 14.6921 1.006718  1.317005E-5
465 0.3976 1.016631  3.275081E-5
466 17.4057 1.026373  5.217136E-5
467 17.7879 1.015043  2.989520E-5
468 -7.3611 1.016565  3.306953E-5
469 -19.5534 1.023702  4.753106E-5
470 10.6407 0.994756 -1.056326E-5
471 7.8888 0.998947 -2.130281E-6
472 5.8249 1.005502  1.118363E-5
473 17.3293 1.003000  6.126309E-6
474 17.2528 1.023219  4.762474E-5
475 13.6601 1.008935  1.840799E-5
476 -18.6361 1.001205  2.494068E-6
477 -13.2088 1.012167  2.529295E-5
478 19.1256 1.000966  2.016905E-6
479 -18.7890 1.016421  3.444271E-5
480 18.4377 1.003747  7.893912E-6
481 9.7999 0.997025 -6.296542E-6
482 -19.2477 1.014699  3.124417E-5
483 18.3995 1.002961  6.322403E-6
484 -18.7508 1.026256  5.630331E-5
485 7.0480 1.004710  1.014539E-5
486 10.4496 1.001308  2.828803E-6
487 -7.2465 1.023455  5.096610E-5
488 13.8894 1.024006  5.239160E-5
489 1.4678 1.017498  3.835584E-5
490 4.6783 1.011473  2.525789E-5
491 -19.6681 1.016414  3.629394E-5
492 -18.1393 1.026552  5.896774E-5
493 18.7434 1.006323  1.410447E-5
494 -17.1073 1.003216  7.204338E-6
495 16.6413 1.016834  3.787475E-5
496 18.0937 1.037442  8.460857E-5
497 -19.9356 0.997111 -6.556656E-6
498 4.6019 0.996369 -8.274980E-6
499 8.5386 1.017248  3.948261E-5
500 7.3920 1.013250  3.046201E-5
501 10.9847 1.005587  1.289860E-5
502 18.8199 1.007178  1.664499E-5
503 7.5066 1.011866  2.763209E-5
504 18.7817 1.027731  6.485115E-5
505 14.5774 1.005797  1.361547E-5
506 18.4759 1.005575  1.314815E-5
507 -19.1330 1.029336  6.948567E-5
508 10.2967 1.012710  3.023377E-5
509 10.7554 1.003742  8.938993E-6
510 17.4057 0.983693 -3.911823E-5
511 11.6727 0.992782 -1.738851E-5
512 16.3738 0.998708 -3.125135E-6
513 2.8820 0.995963 -9.807487E-6
514 -17.5278 1.009182  2.239912E-5
515 -3.0040 1.000133  3.249840E-7
516 -18.5215 1.005616  1.381633E-5
517 18.8963 1.017052  4.212369E-5
518 -6.8260 1.018316  4.543547E-5
519 -8.0491 1.019319  4.812469E-5
520 -19.2477 1.012199  3.051375E-5
521 18.3230 1.008582  2.155553E-5
522 5.7867 0.997602 -6.047208E-6
523 7.9271 1.014887  3.770296E-5
524 -18.1775 1.011297  2.872979E-5
525 -19.7828 0.999317 -1.743467E-6
526 11.1376 1.038903  9.975172E-5
527 5.1752 1.002246  5.781592E-6
528 17.9790 1.006682  1.727492E-5
529 19.1256 1.023912  6.207249E-5
530 -16.2665 1.011957  3.116515E-5
531 -19.4770 0.997073 -7.659283E-6
532 14.9978 0.993496 -1.709000E-5
533 16.3738 0.982032 -4.740840E-5
534 18.2848 1.019144  5.071692E-5
535 12.5899 1.010422  2.772136E-5
536 -19.7445 0.987676 -3.291538E-5
537 -9.0810 1.005867  1.573239E-5
538 14.5010 1.025441  6.849795E-5
539 19.0874 1.010659  2.881585E-5
540 18.7052 0.994692 -1.440762E-5
541 -17.6042 1.026721  7.281823E-5
542 10.7171 1.007861  2.150925E-5
543 19.0110 1.002585  7.101321E-6
544 6.4365 0.992625 -2.034166E-5
545 -9.5779 0.983621 -4.535554E-5
546 17.9408 1.014821  4.120391E-5
547 6.2071 1.021761  6.073916E-5
548 18.4759 1.014612  4.094905E-5
549 17.4822 1.003645  1.025509E-5
550 -0.9019 0.999738 -7.399497E-7
551 -18.6361 0.993076 -1.963549E-5
552 16.1444 1.015825  4.505371E-5
553 -5.6412 1.014831  4.239110E-5
554 16.7560 0.995003 -1.433980E-5
555 15.4183 1.019950  5.747173E-5
 5.589389   0.00  10.00 -0.00 0.09
  0 -0.0992 0.899154 -5.678130E-6 
  1 -1.2076 0.893557 -5.997301E-6 
  2 -12.6355 1.056678  3.196338E-6 
  3 2.9966 1.033535  1.893442E-6 
  4 2.1558 1.001760  9.951010E-8 
  5 2.0411 1.023041  1.304994E-6 
  6 3.5699 1.014452  8.201427E-7 
  7 -18.2157 1.026283  1.494845E-6 
  8 0.0536 1.014166  8.076425E-7 
  9 7.6595 1.029769  1.701860E-6 
 10 -11.3360 1.024949  1.430520E-6 
 11 -11.6418 1.016700  9.606208E-7 
 12 7.2773 0.996344 -2.110209E-7 
 13 1.6971 1.007481  4.333856E-7 
 14 -0.9783 1.013289  7.728956E-7 
 15 -0.2139 1.010924  6.379838E-7 
 16 -0.4050 1.004880  2.862898E-7 
 17 6.8569 1.016124  9.502385E-7 
 18 -3.2715 1.018074  1.070350E-6 
 19 -2.6600 1.008636  5.139940E-7 
 20 1.9647 1.007787  4.659756E-7 
 21 18.9345 1.015279  9.193343E-7 
 22 -13.0942 0.977130 -1.383980E-6 
 23 18.8199 1.019900  1.211420E-6 
 24 -10.7627 1.034077  2.087315E-6 
 25 -10.9156 0.988802 -6.902677E-7 
 26 4.9076 1.003636  2.256091E-7 
 27 -12.5973 0.992829 -4.479438E-7 
 28 3.8375 0.979994 -1.258469E-6 
 29 7.3920 1.005684  3.601385E-7 
 30 0.0536 1.014966  9.551492E-7 
 31 10.7936 1.008753  5.628424E-7 
 32 9.0737 1.021903  1.419261E-6 
 33 -0.9019 1.009632  6.290444E-7 
 34 -3.2333 1.020514  1.350531E-6 
 35 6.9715 1.022346  1.483242E-6 
 36 -12.1769 1.019607  1.312333E-6 
 37 -10.7627 1.025952  1.751866E-6 
 38 -11.0303 1.002765  1.882709E-7 
 39 -1.6663 1.016093  1.105449E-6 
 40 -12.3298 1.013411  9.295415E-7 
 41 3.4935 1.004436  3.102434E-7 
 42 15.1125 1.012629  8.914513E-7 
 43 -12.2916 1.011181  7.966472E-7 
 44 -10.8010 1.011835  8.513075E-7 
 45 -10.9156 1.016950  1.230989E-6 
 46 1.6589 1.019948  1.462841E-6 
 47 2.7673 0.991739 -6.117625E-7 
 48 14.7685 0.998966 -7.733484E-8 
 49 -11.1067 1.006177  4.666938E-7 
 50 9.4559 1.012092  9.228845E-7 
 51 -0.5961 1.019971  1.539847E-6 
 52 -6.4056 1.012759  9.940321E-7 
 53 0.7034 0.999001 -7.867252E-8 
 54 16.6795 1.021718  1.727706E-6 
 55 14.5392 1.030182  2.426674E-6 
 56 -2.0103 1.003928  3.191906E-7 
 57 -13.8204 1.002647  2.174601E-7 
 58 0.4741 1.002165  1.797405E-7 
 59 -11.9476 1.002102  1.764627E-7 
 60 6.0543 0.991034 -7.609320E-7 
 61 13.6601 1.031659  2.716667E-6 
 62 5.8632 1.030120  2.613360E-6 
 63 1.8118 1.003123  2.739702E-7 
 64 -1.0930 1.006649  5.898895E-7 
 65 -12.0622 1.006307  5.659393E-7 
 66 -14.6994 1.017280  1.568088E-6 
 67 -14.2026 0.997143 -2.621956E-7 
 68 17.9026 1.025170  2.336603E-6 
 69 1.8118 1.032920  3.091095E-6 
 70 5.2898 1.004779  4.538977E-7 
 71 2.8055 1.036933  3.548336E-6 
 72 8.7679 0.987861 -1.179773E-6 
 73 -10.6863 0.996146 -3.788870E-7 
 74 -12.3298 1.009761  9.708573E-7 
 75 14.7303 1.026148  2.631096E-6 
 76 11.9020 1.000278  2.827711E-8 
 77 15.5329 1.010272  1.057986E-6 
 78 15.6476 1.034927  3.639417E-6 
 79 -11.3743 1.011804  1.244468E-6 
 80 13.7366 1.007570  8.074989E-7 
 81 18.9345 1.016354  1.764936E-6 
 82 12.4753 1.014311  1.562710E-6 
 83 17.0235 0.995744 -4.702471E-7 
 84 10.8318 1.002146  2.398471E-7 
 85 15.6094 1.016421  1.857376E-6 
 86 -12.2151 1.001294  1.481022E-7 
 87 -12.7502 1.021027  2.434812E-6 
 88 6.5129 1.020187  2.365249E-6 
 89 9.1883 1.008606  1.020290E-6 
 90 14.7685 0.999710 -3.478622E-8 
 91 0.1683 1.024809  3.011034E-6 
 92 -13.2471 0.994753 -6.443954E-7 
 93 -12.4444 1.005390  6.697379E-7 
 94 -11.1832 1.000045  5.627166E-9 
 95 3.4553 1.021689  2.758874E-6 
 96 4.7930 1.007594  9.773732E-7 
 97 8.9208 1.014688  1.912530E-6 
 98 -2.8511 1.019413  2.557510E-6 
 99 -1.4752 0.994790 -6.943815E-7 
100 -11.5271 1.000010  1.325283E-9 
101 15.0361 0.997775 -3.035710E-7 
102 -3.8066 1.007995  1.103605E-6 
103 14.1188 0.994849 -7.192394E-7 
104 -12.9795 1.030899  4.365085E-6 
105 10.1438 0.975533 -3.496702E-6 
106 4.9076 1.020432  2.954069E-6 
107 7.8124 0.988919 -1.620705E-6 
108 16.6031 0.999962 -5.670616E-9 
109 -16.9162 1.002864  4.286753E-7 
110 -4.3799 0.993271 -1.018664E-6 
111 11.5962 1.005196  7.957375E-7 
112 10.3349 1.011696  1.811695E-6 
113 -1.3223 1.012872  2.016778E-6 
114 -18.4833 1.028431  4.505468E-6 
115 2.2322 1.016196  2.595903E-6 
116 7.6213 1.006732  1.091354E-6 
117 5.4045 1.005020  8.229910E-7 
118 7.9653 0.988453 -1.914683E-6 
119 -7.5904 1.024687  4.139840E-6 
120 -13.1324 1.015736  2.668630E-6 
121 17.2911 1.014290  2.450622E-6 
122 -12.6355 0.989066 -1.896298E-6 
123 5.5956 1.013681  2.399167E-6 
124 13.4308 1.015234  2.701388E-6 
125 -0.2903 0.999216 -1.406168E-7 
126 5.6338 0.997464 -4.598543E-7 
127 -12.7884 1.017023  3.120595E-6 
128 2.8820 1.002932  5.433845E-7 
129 10.6407 1.011691  2.190728E-6 
130 15.3036 0.992468 -1.426963E-6 
131 -11.1832 1.015683  3.003733E-6 
132 -13.0560 1.004844  9.378500E-7 
133 -14.5083 1.015370  3.008511E-6 
134 -3.4626 1.012973  2.567059E-6 
135 -13.9350 1.011803  2.360941E-6 
136 2.8437 1.022838  4.617529E-6 
137 9.4941 1.017061  3.486693E-6 
138 11.7873 0.978501 -4.441031E-6 
139 6.4365 1.009901  2.067114E-6 
140 -10.3805 1.020741  4.376750E-6 
141 -1.5898 0.993410 -1.405454E-6 
142 -1.4752 1.009591  2.067164E-6 
143 -13.8204 0.991246 -1.906786E-6 
144 -2.6218 1.021882  4.816736E-6 
145 -14.1644 0.986067 -3.099245E-6 
146 12.1313 0.982969 -3.828266E-6 
147 18.9728 1.015693  3.564456E-6 
148 7.1626 1.001158  2.658474E-7 
149 -11.4889 1.031399  7.281230E-6 
150 -12.5209 0.996685 -7.766861E-7 
151 16.4502 0.996666 -7.891497E-7 
152 -10.6481 1.009474  2.265821E-6 
153 12.9721 1.003761  9.088418E-7 
154 -0.9783 1.010616  2.591245E-6 
155 8.0799 1.000277  6.823951E-8 
156 -0.5197 1.002963  7.379611E-7 
157 -13.1706 0.994501 -1.383630E-6 
158 0.8181 1.001587  4.034173E-7 
159 2.4233 1.005373  1.379495E-6 
160 16.2209 1.004332  1.123298E-6 
161 2.8437 1.006936  1.816741E-6 
162 15.6476 1.012104  3.201975E-6 
163 16.6413 1.003323  8.878261E-7 
164 -2.8129 0.999564 -1.176077E-7 
165 16.6031 1.007947  2.165362E-6 
166 7.0480 1.008644  2.378531E-6 
167 16.7178 1.028598  7.946691E-6 
168 -13.3617 1.007271  2.040244E-6 
169 16.8324 1.013649  3.867167E-6 
170 -3.9595 0.991580 -2.408859E-6 
171 -12.8649 0.989795 -2.947932E-6 
172 2.4233 0.987324 -3.697132E-6 
173 -14.2408 0.999778 -6.524117E-8 
174 -13.0560 1.002929  8.707620E-7 
175 -2.7747 1.003525  1.058029E-6 
176 9.1501 0.994759 -1.588065E-6 
177 -14.6612 1.009410  2.878409E-6 
178 4.8312 1.006355  1.962206E-6 
179 4.8312 1.000857  2.672506E-7 
180 6.7422 1.025549  8.038693E-6 
181 14.1952 1.002769  8.795292E-7 
182 -9.6926 0.998017 -6.355637E-7 
183 17.7879 1.001185  3.833347E-7 
184 -0.2139 0.994488 -1.799946E-6 
185 -12.2533 1.000845  2.783889E-7 
186 -13.7821 0.994529 -1.819681E-6 
187 -15.9989 0.996775 -1.082667E-6 
188 2.9202 1.029127  9.867458E-6 
189 15.3036 1.021148  7.229718E-6 
190 8.7679 1.009776  3.372500E-6 
191 13.6219 1.015541  5.410278E-6 
192 -13.2471 1.009443  3.316987E-6 
193 -9.4250 1.012431  4.406078E-6 
194 3.4935 1.020379  7.288097E-6 
195 14.0805 1.004297  1.550619E-6 
196 5.7103 1.004830  1.758564E-6 
197 5.4809 1.003281  1.205058E-6 
198 5.7867 0.997961 -7.557505E-7 
199 8.0035 1.010471  3.914609E-6 
200 -12.3298 0.975597 -9.203836E-6 
201 8.0799 1.012038  4.580078E-6 
202 2.5380 1.003589  1.377507E-6 
203 5.4809 1.024788  9.596875E-6 
204 -12.5209 0.996185 -1.489747E-6 
205 8.8826 1.007364  2.900821E-6 
206 -12.7884 1.003504  1.392228E-6 
207 17.7879 1.006482  2.597754E-6 
208 6.7422 1.010593  4.281925E-6 
209 4.7930 1.020317  8.282863E-6 
210 -11.9858 1.005895  2.423877E-6 
211 8.8061 0.998841 -4.807794E-7 
212 -12.4827 1.011973  5.007077E-6 
213 -12.2151 1.008599  3.626423E-6 
214 -19.3241 0.997686 -9.839929E-7 
215 -14.9670 1.028100  1.205102E-5 
216 9.3030 1.021861  9.453977E-6 
217 6.8951 0.995949 -1.766470E-6 
218 5.6720 1.009765  4.293531E-6 
219 4.9841 1.004683  2.076326E-6 
220 -15.4256 0.997597 -1.074137E-6 
221 3.8757 1.009242  4.165570E-6 
222 5.9778 1.003629  1.648924E-6 
223 -11.7947 1.049660  2.275204E-5 
224 16.7178 1.008665  4.002333E-6 
225 12.2842 0.997780 -1.033835E-6 
226 18.2848 1.009389  4.407786E-6 
227 14.6156 0.996433 -1.687861E-6 
228 7.3537 1.009882  4.714513E-6 
229 5.6338 1.001766  8.492239E-7 
230 -2.9658 1.001409  6.828941E-7 
231 16.0298 1.020105  9.824585E-6 
232 -17.3749 1.030149  1.485015E-5 
233 16.2209 1.007421  3.684422E-6 
234 -11.5654 1.011253  5.630961E-6 
235 3.7992 1.009028  4.553635E-6 
236 9.9910 1.012450  6.329008E-6 
237 15.6476 1.015498  7.940042E-6 
238 7.0480 0.996857 -1.622919E-6 
239 4.9076 1.009385  4.883600E-6 
240 18.6670 1.004022  2.109447E-6 
241 5.8632 0.998870 -5.972768E-7 
242 8.5004 1.003204  1.706630E-6 
243 2.0029 1.022279  1.195728E-5 
244 -4.7621 1.013952  7.545877E-6 
245 10.9082 1.016430  8.953895E-6 
246 7.5831 1.012017  6.599170E-6 
247 -14.0115 0.995826 -2.309340E-6 
248 0.1301 0.997532 -1.375967E-6 
249 8.3475 0.997523 -1.391560E-6 
250 5.2516 0.991394 -4.870809E-6 
251 -11.9093 1.010048  5.729880E-6 
252 -8.8899 1.008972  5.155171E-6 
253 -14.9670 1.007271  4.209031E-6 
254 -12.1005 1.038119  2.223060E-5 
255 12.7810 1.008051  4.730327E-6 
256 17.9408 0.980941 -1.128076E-5 
257 4.9459 1.004628  2.759719E-6 
258 -14.5083 1.007469  4.486645E-6 
259 -14.5848 0.992738 -4.394057E-6 
260 -12.0240 1.013493  8.224270E-6 
261 -12.3680 0.987608 -7.608437E-6 
262 -12.0622 0.990372 -5.954904E-6 
263 -11.2978 1.002189  1.363567E-6 
264 -12.9031 1.030057  1.886083E-5 
265 5.0605 1.014812  9.361489E-6 
266 18.3230 1.019237  1.224628E-5 
267 -13.8968 1.019111  1.225338E-5 
268 6.8951 0.983445 -1.069073E-5 
269 7.2009 1.013277  8.635311E-6 
270 -10.4952 1.013332  8.732924E-6 
271 -19.2095 0.988734 -7.432176E-6 
272 -10.5334 1.000011  7.137339E-9 
273 11.5198 1.002605  1.743051E-6 
274 7.3920 1.021305  1.435524E-5 
275 -11.7947 1.044264  3.003447E-5 
276 8.3857 1.011175  7.635727E-6 
277 -2.9275 1.016414  1.129394E-5 
278 16.7560 1.018150  1.257587E-5 
279 -14.3172 1.004095  2.856920E-6 
280 8.9208 0.992825 -5.040936E-6 
281 5.4045 1.013534  9.573504E-6 
282 16.4884 1.006571  4.680550E-6 
283 -13.3617 1.001508  1.081685E-6 
284 -12.2916 1.008955  6.466150E-6 
285 7.6595 1.011215  8.153614E-6 
286 -12.5973 0.973889 -1.911256E-5 
287 6.7422 1.013275  9.783274E-6 
288 7.9271 1.007648  5.674375E-6 
289 6.0925 1.001145  8.553886E-7 
290 6.5511 1.018143  1.364427E-5 
291 -14.8141 0.993795 -4.698069E-6 
292 10.2967 1.015346  1.169631E-5 
293 3.0731 0.997169 -2.172337E-6 
294 5.7103 1.004915  3.796038E-6 
295 5.4427 0.988118 -9.239062E-6 
296 6.6276 0.999969 -2.440595E-8 
297 5.4809 1.000642  5.058123E-7 
298 0.1301 1.010770  8.542086E-6 
299 -13.2853 1.031248  2.494583E-5 
300 4.9459 1.004539  3.647410E-6 
301 -11.9093 1.004725  3.822118E-6 
302 9.1883 1.013283  1.081400E-5 
303 -13.6675 1.001578  1.292873E-6 
304 2.4615 1.022559  1.860578E-5 
305 5.5192 1.014508  1.204297E-5 
306 -13.0177 0.997781 -1.853671E-6 
307 -14.1644 0.998928 -9.011643E-7 
308 -1.0547 1.015317  1.296250E-5 
309 9.0737 0.992914 -6.035579E-6 
310 -0.6725 1.003982  3.413205E-6 
311 -7.3611 0.977395 -1.949995E-5 
312 12.4753 0.993144 -5.951926E-6 
313 15.5711 0.999620 -3.315645E-7 
314 2.9966 1.002237  1.966337E-6 
315 1.4296 0.997535 -2.181102E-6 
316 5.4045 1.007287  6.487823E-6 
317 10.1438 1.014613  1.309267E-5 
318 15.6094 1.009077  8.183843E-6 
319 -11.4125 1.002207  2.002082E-6 
320 7.0098 1.027337  2.495530E-5 
321 7.3155 1.001054  9.682046E-7 
322 -3.5391 0.998225 -1.640507E-6 
323 -15.5021 1.014174  1.318134E-5 
324 -0.4050 0.999828 -1.612452E-7 
325 10.5643 1.001392  1.310818E-6 
326 10.9082 1.004521  4.282788E-6 
327 5.9778 1.017155  1.634997E-5 
328 -2.5071 1.008248  7.909664E-6 
329 1.8500 1.025576  2.467490E-5 
330 8.4621 1.012530  1.216199E-5 
331 -10.9156 1.000945  9.225915E-7 
332 4.3343 1.011696  1.149097E-5 
333 6.9715 1.006089  6.018552E-6 
334 -12.5209 0.978586 -2.129330E-5 
335 1.1620 1.027556  2.756593E-5 
336 -11.0303 0.986609 -1.347601E-5 
337 -11.8711 0.993506 -6.574783E-6 
338 -13.3617 1.001641  1.670800E-6 
339 -5.9852 1.007512  7.696132E-6 
340 12.5517 1.010963  1.129779E-5 
341 6.6658 0.987468 -1.299197E-5 
342 15.3036 1.016852  1.757358E-5 
343 -13.0560 1.015608  1.637219E-5 
344 6.7040 1.006846  7.223781E-6 
345 7.5831 0.990199 -1.040182E-5 
346 -11.6036 1.011080  1.182869E-5 
347 0.2830 1.010619  1.140273E-5 
348 -8.4695 1.010244  1.106401E-5 
349 10.4878 0.987530 -1.354690E-5 
350 2.4998 1.028783  3.145031E-5 
351 5.3663 1.027017  2.969180E-5 
352 -13.6675 1.013030  1.440281E-5 
353 -13.9350 1.004823  5.362281E-6 
354 -2.8129 1.003228  3.609161E-6 
355 -11.7947 1.012189  1.370669E-5 
356 10.5260 1.008620  9.748747E-6 
357 6.8951 1.010144  1.153759E-5 
358 -0.9783 1.000160  1.827334E-7 
359 -19.5152 1.000185  2.123891E-7 
360 4.9841 0.993096 -7.986845E-6 
361 -4.1888 1.008705  1.012789E-5 
362 7.0480 0.999327 -7.877063E-7 
363 9.6852 1.012670  1.490820E-5 
364 -0.8636 1.003977  4.705836E-6 
365 6.5893 1.009887  1.176432E-5 
366 -11.4889 0.980517 -2.331251E-5 
367 2.1940 1.004784  5.756178E-6 
368 17.1764 1.016018  1.938053E-5 
369 -11.9858 1.016588  2.018155E-5 
370 16.8706 0.987264 -1.558053E-5 
371 8.5768 0.993908 -7.494575E-6 
372 16.2591 1.026321  3.255741E-5 
373 -13.4382 1.019346  2.406214E-5 
374 -2.2014 1.006940  8.678486E-6 
375 -11.4507 1.012636  1.588894E-5 
376 17.1764 1.004746  6.000285E-6 
377 -11.6800 1.011780  1.497516E-5 
378 -12.3680 1.010003  1.278588E-5 
379 3.9521 1.005887  7.565706E-6 
380 -18.4068 0.990774 -1.192058E-5 
381 5.3281 1.013184  1.712678E-5 
382 16.6031 0.996613 -4.423907E-6 
383 12.3988 1.003809  5.001889E-6 
384 -10.7627 1.025509  3.367608E-5 
385 -11.9858 1.001578  2.093934E-6 
386 10.6025 1.009976  1.331161E-5 
387 16.6031 1.005790  7.766958E-6 
388 -13.0177 1.021129  2.849497E-5 
389 -8.2402 1.023264  3.154115E-5 
390 -3.1187 1.011526  1.570954E-5 
391 6.8187 1.019679  2.696439E-5 
392 4.1050 0.998150 -2.548197E-6 
393 3.9139 1.014403  1.994366E-5 
394 -0.2139 1.003571  4.971024E-6 
395 16.1827 1.016061  2.247465E-5 
396 5.4809 1.014234  2.002234E-5 
397 -13.0942 1.035030  4.953236E-5 
398 -11.5271 1.019663  2.794886E-5 
399 -11.2214 0.990565 -1.348090E-5 
400 -15.0434 1.023803  3.418626E-5 
401 -1.3223 1.006350  9.166600E-6 
402 -12.5591 1.002599  3.771574E-6 
403 -11.3360 1.024477  3.570318E-5 
404 8.3093 0.996594 -4.993453E-6 
405 -11.9093 1.004061  5.984766E-6 
406 18.8199 0.992986 -1.038914E-5 
407 16.6031 1.017165  2.555578E-5 
408 14.1952 1.014100  2.109906E-5 
409 4.0286 1.011230  1.689046E-5 
410 4.6019 0.998915 -1.639709E-6 
411 2.6526 1.017604  2.674741E-5 
412 7.3537 1.023466  3.583413E-5 
413 14.1952 0.981025 -2.912372E-5 
414 7.2009 1.010267  1.583740E-5 
415 -13.1324 1.020537  3.183990E-5 
416 -13.0560 1.010492  1.634782E-5 
417 7.0098 1.010283  1.610221E-5 
418 6.0925 0.985918 -2.216144E-5 
419 -11.4507 0.998332 -2.638007E-6 
420 0.0154 1.019990  3.177488E-5 
421 4.9076 1.028633  4.574034E-5 
422 8.5386 1.013238  2.125209E-5 
423 -11.6800 1.002667  4.302525E-6 
424 5.3281 0.995202 -7.779559E-6 
425 8.3475 1.021741  3.542286E-5 
426 -2.1249 1.011245  1.841264E-5 
427 -0.1757 0.998023 -3.253765E-6 
428 11.4816 0.998240 -2.910866E-6 
429 6.6658 0.996249 -6.233116E-6 
430 6.5129 1.019800  3.306042E-5 
431 -14.3937 1.019438  3.261443E-5 
432 13.7366 1.008491  1.431554E-5 
433 -2.1631 1.002870  4.862407E-6 
434 5.6720 1.015318  2.607818E-5 
435 15.5711 0.994516 -9.381941E-6 
436 8.4621 1.021275  3.657103E-5 
437 6.9333 0.996034 -6.849756E-6 
438 -12.2151 1.030020  5.210143E-5 
439 10.3732 0.995116 -8.516819E-6 
440 18.1701 0.989433 -1.851722E-5 
441 17.4439 1.005584  9.832113E-6 
442 -13.5528 1.002670  4.723454E-6 
443 7.6595 1.009476  1.684356E-5 
444 -15.1581 1.012023  2.147276E-5 
445 -12.4444 1.018287  3.281449E-5 
446 0.4358 1.028832  5.198286E-5 
447 -1.2076 1.016709  3.026856E-5 
448 16.7178 1.019307  3.514076E-5 
449 13.2397 1.001550  2.834589E-6 
450 6.0543 0.993774 -1.143928E-5 
451 7.1244 1.014722  2.717431E-5 
452 6.0543 0.990777 -1.710438E-5 
453 -12.0622 0.998440 -2.906475E-6 
454 -12.5209 1.002490  4.661523E-6 
455 17.9026 1.034003  6.394637E-5 
456 7.0862 0.989523 -1.979556E-5 
457 -13.6293 1.014788  2.807012E-5 
458 -13.1324 0.999827 -3.297726E-7 
459 8.6532 1.004909  9.403700E-6 
460 11.3669 1.003374  6.493207E-6 
461 8.6532 1.015805  3.055899E-5 
462 -15.1963 1.006644  1.290562E-5 
463 18.3612 1.005116  9.983739E-6 
464 -12.9031 0.989368 -2.084238E-5 
465 11.4433 1.029163  5.742833E-5 
466 17.6733 1.006525  1.290721E-5 
467 1.4296 1.000894  1.775942E-6 
468 -12.5209 1.025826  5.155634E-5 
469 -16.1518 1.017355  3.480397E-5 
470 -10.3423 0.999377 -1.255077E-6 
471 7.8124 1.003341  6.760456E-6 
472 15.8769 0.994960 -1.024465E-5 
473 -12.0240 0.995087 -1.003265E-5 
474 5.5574 1.015790  3.238647E-5 
475 -10.8774 1.017729  3.652820E-5 
476 3.9139 1.016673  3.450657E-5 
477 15.5711 1.018116  3.766091E-5 
478 -10.3423 1.006450  1.346881E-5 
479 -12.6738 1.015823  3.318866E-5 
480 6.5893 1.004045  8.522544E-6 
481 -13.5910 0.995278 -9.992922E-6 
482 -5.7559 1.012133  2.578859E-5 
483 -12.5973 1.012272  2.619955E-5 
484 -13.2853 1.009710  2.082160E-5 
485 0.3212 1.018991  4.090340E-5 
486 16.4120 1.009291  2.009889E-5 
487 3.7610 1.004801  1.043127E-5 
488 12.4753 1.020776  4.534328E-5 
489 4.1815 0.996105 -8.537238E-6 
490 -11.3360 0.988426 -2.548056E-5 
491 -3.2715 0.997084 -6.447915E-6 
492 -12.2151 1.018030  4.004272E-5 
493 -12.5209 1.011597  2.586687E-5 
494 13.2397 1.033455  7.494635E-5 
495 13.5072 1.005327  1.198606E-5 
496 10.1056 1.014125  3.191886E-5 
497 -10.5334 1.009663  2.193044E-5 
498 -12.3680 1.011434  2.606239E-5 
499 -13.0942 1.021312  4.878523E-5 
500 16.6795 1.037542  8.630700E-5 
501 6.1689 0.995932 -9.392287E-6 
502 -13.5910 1.025260  5.857124E-5 
503 -13.9350 1.027290  6.354885E-5 
504 14.8067 1.032918  7.698243E-5 
505 5.6338 0.991724 -1.943576E-5 
506 -10.8010 1.005157  1.216431E-5 
507 8.1182 1.013172  3.119973E-5 
508 -4.3417 1.018201  4.329434E-5 
509 5.5192 1.008045  1.921839E-5 
510 -12.1005 0.986075 -3.340353E-5 
511 -12.7120 0.989799 -2.457533E-5 
512 17.2146 1.023019  5.568641E-5 
513 7.6595 1.008383  2.036445E-5 
514 7.7742 1.024279  5.922932E-5 
515 3.6846 1.013048  3.196379E-5 
516 -13.3999 1.016885  4.153844E-5 
517 14.7303 1.019872  4.909142E-5 
518 -3.3098 0.993257 -1.672703E-5 
519 7.3920 0.999620 -9.477688E-7 
520 5.5956 1.002634  6.587584E-6 
521 -11.4889 0.991363 -2.169437E-5 
522 -13.1706 1.001453  3.664604E-6 
523 7.2773 1.020310  5.143840E-5 
524 8.9590 1.025686  6.532116E-5 
525 4.2579 0.988920 -2.829249E-5 
526 -11.9093 1.005346  1.370850E-5 
527 11.8255 1.010819  2.785581E-5 
528 -13.0177 1.029547  7.638593E-5 
529 -10.8774 1.024683  6.407214E-5 
530 8.3093 1.022352  5.825961E-5 
531 7.6977 1.002169  5.675313E-6 
532 -2.0867 1.027320  7.179234E-5 
533 7.2391 1.027756  7.323488E-5 
534 1.0856 1.034524  9.146395E-5 
535 17.1000 1.003003  7.987771E-6 
536 4.9841 1.007925  2.116524E-5 
537 4.2579 1.002843  7.624001E-6 
538 6.2071 0.997426 -6.929481E-6 
539 -9.8454 1.023128  6.252339E-5 
540 -5.2208 1.010978  2.979632E-5 
541 5.7485 0.999863 -3.735414E-7 
542 -14.7377 1.019552  5.349720E-5 
543 -14.5083 1.012862  3.533185E-5 
544 9.4941 1.032766  9.037039E-5 
545 6.5511 1.010637  2.945499E-5 
546 -0.2521 1.034005  9.453943E-5 
547 15.1507 1.008616  2.405041E-5 
548 -4.0742 0.998317 -4.715681E-6 
549 -3.4626 0.998564 -4.039622E-6 
550 -11.6036 1.006411  1.810935E-5 
551 -13.8586 1.009520  2.699569E-5 
552 -11.9858 0.990907 -2.588929E-5 
553 1.8500 1.014473  4.136893E-5 
554 17.7879 1.003602  1.033618E-5 
555 -11.5654 1.026249  7.562046E-5 
 5.590744  90.00  10.00 -0.00 0.09
  0 -0.0610 0.901358 -5.554026E-6 
  1 -1.0547 0.899069 -5.686745E-6 
  2 -11.6418 1.089565  5.051002E-6 
  3 0.0919 1.100097  5.651668E-6 
  4 0.3594 1.094501  5.343400E-6 
  5 0.0154 1.135374  7.667453E-6 
  6 0.0919 1.136861  7.766824E-6 
  7 0.2447 1.154859  8.807586E-6 
  8 -0.0992 1.151143  8.617337E-6 
  9 -0.2139 1.153657  8.784385E-6 
 10 -0.1375 1.157067  9.005887E-6 
 11 -0.5579 1.104814  6.029041E-6 
 12 -0.9019 1.074644  4.308415E-6 
 13 -0.7872 1.075077  4.349412E-6 
 14 -0.5961 1.065962  3.836399E-6 
 15 -0.8636 1.025842  1.509251E-6 
 16 -1.9338 1.044719  2.623217E-6 
 17 -0.1757 1.043721  2.576614E-6 
 18 19.0110 1.011215  6.641638E-7 
 19 -3.7302 1.036677  2.183064E-6 
 20 -1.6281 1.018622  1.114314E-6 
 21 -11.5271 1.014576  8.770311E-7 
 22 -9.5015 1.018881  1.142555E-6 
 23 -19.3241 1.019237  1.171052E-6 
 24 13.8130 1.017217  1.054596E-6 
 25 16.2209 1.006919  4.265291E-7 
 26 -0.3668 1.000017  1.047745E-9 
 27 -3.6155 1.013475  8.417604E-7 
 28 -2.3542 1.000398  2.500669E-8 
 29 -3.8831 1.019504  1.235698E-6 
 30 12.3224 1.004061  2.591815E-7 
 31 -1.4752 1.026826  1.724968E-6 
 32 8.5768 1.009844  6.378948E-7 
 33 -10.1130 1.009381  6.126841E-7 
 34 -9.8072 0.997027 -1.956974E-7 
 35 18.3995 1.023436  1.555594E-6 
 36 7.4684 1.013955  9.340363E-7 
 37 -13.2853 1.008892  6.002296E-7 
 38 -19.4388 1.001372  9.338931E-8 
 39 15.7240 1.015345  1.054065E-6 
 40 -9.4250 0.993635 -4.411387E-7 
 41 -10.5334 1.010171  7.113943E-7 
 42 12.1313 1.031563  2.228035E-6 
 43 -13.0177 0.999579 -3.002992E-8 
 44 -7.8962 1.012119  8.717417E-7 
 45 -14.0879 1.025459  1.848907E-6 
 46 -10.9156 1.008038  5.894032E-7 
 47 -9.0810 0.995086 -3.639192E-7 
 48 -0.9783 1.029498  2.206261E-6 
 49 -19.9356 1.009280  7.010976E-7 
 50 -11.1449 1.012890  9.837415E-7 
 51 -12.5209 1.002787  2.148987E-7 
 52 2.0793 1.018116  1.411330E-6 
 53 -12.5209 0.996356 -2.868442E-7 
 54 -1.4370 1.039280  3.124821E-6 
 55 18.7434 1.031350  2.520522E-6 
 56 9.3412 1.015463  1.256537E-6 
 57 -19.7445 1.008740  7.179356E-7 
 58 -1.4370 1.004901  4.069175E-7 
 59 -12.8649 1.016744  1.405605E-6 
 60 -13.0942 1.010156  8.619005E-7 
 61 -10.8010 0.996066 -3.376010E-7 
 62 -3.5009 1.038220  3.316216E-6 
 63 2.4615 0.987826 -1.068117E-6 
 64 -19.2095 1.026113  2.316884E-6 
 65 -15.3874 0.991450 -7.671399E-7 
 66 -10.2659 1.017879  1.622463E-6 
 67 -0.6725 1.011268  1.034170E-6 
 68 -7.9344 1.016932  1.571845E-6 
 69 -11.7182 1.024132  2.265875E-6 
 70 -18.0628 1.013626  1.294167E-6 
 71 -12.8266 1.005483  5.267665E-7 
 72 -11.2214 1.001316  1.279233E-7 
 73 -3.5391 1.008995  8.843366E-7 
 74 17.1764 1.017111  1.701908E-6 
 75 -16.1136 1.001075  1.082078E-7 
 76 -16.9927 0.993353 -6.766442E-7 
 77 -17.5278 1.020648  2.126642E-6 
 78 -10.6099 1.021604  2.251179E-6 
 79 -9.5397 0.993179 -7.190610E-7 
 80 18.3612 1.031838  3.396051E-6 
 81 -13.2853 1.029550  3.189069E-6 
 82 -9.7690 1.026278  2.869433E-6 
 83 -11.8711 1.006805  7.518238E-7 
 84 -18.8272 1.027261  3.047408E-6 
 85 -11.0685 1.037795  4.274921E-6 
 86 -9.9601 0.998191 -2.070445E-7 
 87 -14.3555 1.002088  2.417613E-7 
 88 -12.1769 0.997083 -3.417417E-7 
 89 -15.2727 1.018610  2.206225E-6 
 90 -19.5534 0.999518 -5.785020E-8 
 91 -18.7508 1.019492  2.365732E-6 
 92 18.2848 1.007932  9.740208E-7 
 93 9.7616 1.018551  2.304964E-6 
 94 -14.0497 1.022569  2.837329E-6 
 95 16.9471 1.004728  6.013790E-7 
 96 -15.9607 1.000098  1.264866E-8 
 97 -14.6230 1.015098  1.965968E-6 
 98 -10.9921 1.015041  1.981584E-6 
 99 -13.1324 1.004983  6.641612E-7 
100 -11.8711 1.007965  1.074167E-6 
101 -8.8517 1.011962  1.632008E-6 
102 -13.5146 0.988124 -1.639215E-6 
103 -11.7947 0.998240 -2.457047E-7 
104 -8.2020 1.033996  4.802691E-6 
105 18.9345 0.974962 -3.578373E-6 
106 12.2842 1.013686  1.978656E-6 
107 -10.1894 0.990265 -1.423842E-6 
108 17.3293 1.004625  6.842924E-7 
109 -1.0930 1.015497  2.319329E-6 
110 17.6350 1.015640  2.367787E-6 
111 -13.8586 1.034023  5.210056E-6 
112 16.6413 0.997922 -3.219157E-7 
113 10.4114 1.021655  3.392830E-6 
114 10.8700 0.995097 -7.769944E-7 
115 -10.4188 1.009840  1.577091E-6 
116 17.7115 1.001853  3.003053E-7 
117 -10.8392 0.994240 -9.443641E-7 
118 -12.6738 0.996480 -5.836532E-7 
119 -19.0948 1.011130  1.866331E-6 
120 -12.6738 1.004464  7.570329E-7 
121 -10.6863 1.008121  1.392745E-6 
122 -10.4952 1.004971  8.620399E-7 
123 -13.6293 1.005016  8.796504E-7 
124 -9.6161 1.028565  5.065381E-6 
125 -12.2533 1.021912  3.929092E-6 
126 -0.2903 1.012153  2.203380E-6 
127 -12.2916 0.998869 -2.074080E-7 
128 -9.6543 0.989805 -1.889675E-6 
129 -10.8774 0.995944 -7.600844E-7 
130 -9.0428 0.992163 -1.484740E-6 
131 -11.0685 1.015358  2.941578E-6 
132 -18.5215 1.011040  2.137646E-6 
133 1.8882 1.007158  1.401075E-6 
134 -10.0748 1.021507  4.255701E-6 
135 15.5329 1.008853  1.770774E-6 
136 -10.8774 1.007370  1.490198E-6 
137 -9.8072 1.008719  1.781838E-6 
138 -13.9733 1.002313  4.778565E-7 
139 -16.6487 1.014615  3.051358E-6 
140 -18.0246 1.017715  3.738191E-6 
141 -18.2157 1.028249  6.024672E-6 
142 -12.6355 1.011041  2.379793E-6 
143 -11.8711 1.013812  3.008638E-6 
144 -0.6343 1.017364  3.822315E-6 
145 18.4759 0.997019 -6.630399E-7 
146 -7.6287 0.996339 -8.229797E-7 
147 7.9653 1.017696  4.019300E-6 
148 -10.4188 1.010795  2.477513E-6 
149 0.6652 1.012937  3.000002E-6 
150 -9.3868 1.015333  3.592458E-6 
151 -18.4068 1.013177  3.119404E-6 
152 -18.9419 1.002047  4.896224E-7 
153 -9.8072 1.023300  5.629742E-6 
154 16.7560 1.043590  1.064007E-5 
155 -18.7890 1.004500  1.109686E-6 
156 4.6401 0.993899 -1.519716E-6 
157 -19.6681 0.994310 -1.431672E-6 
158 -12.9413 1.026562  6.751366E-6 
159 -10.2276 0.991908 -2.077609E-6 
160 -10.9921 1.009082  2.355199E-6 
161 -17.7571 1.020365  5.333835E-6 
162 -9.2721 1.019138  5.062455E-6 
163 -7.2082 1.026064  6.963237E-6 
164 -11.9858 0.999512 -1.316745E-7 
165 -9.5779 0.999459 -1.473133E-7 
166 -13.9733 1.023253  6.398384E-6 
167 7.7742 1.031241  8.681076E-6 
168 -19.8592 1.003615  1.014308E-6 
169 11.9020 1.001478  4.188506E-7 
170 -12.2151 0.992827 -2.052139E-6 
171 -11.2978 1.007342  2.120861E-6 
172 18.0172 1.019315  5.633197E-6 
173 -18.5597 0.994233 -1.698049E-6 
174 -12.0622 0.989468 -3.131227E-6 
175 -12.1005 1.011646  3.495520E-6 
176 17.8261 1.009982  3.024657E-6 
177 -4.1888 1.023899  7.310259E-6 
178 -15.6550 0.995900 -1.266132E-6 
179 -8.6988 1.007899  2.462113E-6 
180 14.3099 1.021543  6.778215E-6 
181 -17.6806 1.019186  6.093232E-6 
182 13.7366 1.018805  6.028194E-6 
183 16.9471 1.012341  3.993064E-6 
184 2.0411 0.985351 -4.783865E-6 
185 16.2591 1.017916  5.904982E-6 
186 -5.9087 1.003551  1.181297E-6 
187 -11.5271 0.991415 -2.881978E-6 
188 -12.3298 1.031477  1.066367E-5 
189 -6.0998 0.998845 -3.947783E-7 
190 3.6464 1.016939  5.843636E-6 
191 17.4822 1.012618  4.392689E-6 
192 -11.2978 0.979891 -7.063746E-6 
193 1.5060 1.033411  1.184251E-5 
194 -19.0948 1.007402  2.647368E-6 
195 17.4822 1.038914  1.404162E-5 
196 -9.7690 0.998377 -5.910245E-7 
197 -10.3423 0.995181 -1.770244E-6 
198 -8.5842 1.015458  5.728237E-6 
199 -10.1894 0.998170 -6.842951E-7 
200 3.7228 1.003101  1.169635E-6 
201 -11.2978 1.001691  6.433089E-7 
202 18.7434 1.006520  2.502594E-6 
203 -11.9476 1.023345  9.038322E-6 
204 -11.4125 1.008900  3.475602E-6 
205 7.8124 1.008779  3.458265E-6 
206 -9.9601 1.005468  2.172428E-6 
207 -17.3749 1.018854  7.556123E-6 
208 -18.8655 0.997907 -8.461731E-7 
209 18.1701 1.029990  1.222626E-5 
210 18.7434 1.021143  8.693102E-6 
211 9.4177 1.008340  3.458333E-6 
212 -10.1512 0.997350 -1.108341E-6 
213 -10.8392 1.002061  8.690868E-7 
214 1.0856 1.017176  7.304460E-6 
215 -11.0303 1.002457  1.053658E-6 
216 -12.3298 1.009698  4.194078E-6 
217 0.7798 1.004839  2.109976E-6 
218 -10.5334 1.005446  2.394646E-6 
219 -12.1005 1.024166  1.071407E-5 
220 -9.1193 1.001729  7.729971E-7 
221 -14.1261 0.983927 -7.244479E-6 
222 -8.9282 1.019905  9.045277E-6 
223 3.9139 1.006949  3.183547E-6 
224 -0.7872 1.013824  6.385258E-6 
225 7.8124 0.991156 -4.118294E-6 
226 14.5392 0.993597 -3.005713E-6 
227 -17.9864 0.993744 -2.960649E-6 
228 -0.6725 1.011186  5.336529E-6 
229 -1.7045 1.005724  2.752737E-6 
230 -10.1130 1.002637  1.278538E-6 
231 -13.9350 1.020936  1.023050E-5 
232 -17.9864 1.023874  1.175945E-5 
233 -18.0628 1.011772  5.844378E-6 
234 -18.5597 1.021778  1.089798E-5 
235 -11.3360 1.016935  8.541413E-6 
236 17.5968 1.004742  2.410537E-6 
237 -14.6994 1.023145  1.185792E-5 
238 -10.1130 1.004167  2.151506E-6 
239 -17.8717 1.012829  6.675990E-6 
240 -16.7251 1.015460  8.107644E-6 
241 -10.8010 0.995300 -2.484020E-6 
242 -19.9739 1.009304  4.955251E-6 
243 16.5649 1.007593  4.075195E-6 
244 -15.9607 1.013337  7.212775E-6 
245 18.4759 1.017854  9.730278E-6 
246 -18.4450 0.999097 -4.957595E-7 
247 -13.9350 0.999116 -4.889644E-7 
248 -19.3623 1.027035  1.507318E-5 
249 7.2009 1.015467  8.688879E-6 
250 -12.9031 1.004521  2.559086E-6 
251 17.9408 1.025212  1.437771E-5 
252 3.3024 1.002844  1.634313E-6 
253 15.9151 1.001785  1.033297E-6 
254 -12.5591 1.011266  6.569963E-6 
255 -10.3041 1.011263  6.617468E-6 
256 -15.0434 1.014250  8.434373E-6 
257 -10.4188 1.014010  8.353978E-6 
258 -11.6418 0.996078 -2.356136E-6 
259 -17.6806 0.994755 -3.173898E-6 
260 -5.7941 1.015930  9.710150E-6 
261 3.2642 0.984665 -9.415848E-6 
262 -11.7182 1.019006  1.175481E-5 
263 3.4553 1.004219  2.628409E-6 
264 -10.9156 1.016927  1.062160E-5 
265 18.7817 1.000027  1.708871E-8 
266 -17.0309 0.988975 -7.018462E-6 
267 -13.0942 1.016210  1.039349E-5 
268 -10.3041 0.978718 -1.374374E-5 
269 16.1444 1.008488  5.520698E-6 
270 -12.0622 1.014413  9.441144E-6 
271 10.3732 0.993639 -4.196532E-6 
272 -9.6161 0.999208 -5.264215E-7 
273 -17.9482 1.017997  1.204160E-5 
274 -18.8272 1.025449  1.714717E-5 
275 -10.3423 1.016557  1.123464E-5 
276 -10.0748 1.007663  5.236041E-6 
277 0.5123 1.034351  2.363595E-5 
278 -1.8574 1.021085  1.460896E-5 
279 16.3738 0.994392 -3.912578E-6 
280 -12.5973 1.019019  1.336163E-5 
281 -15.3874 1.008094  5.725798E-6 
282 -10.3805 1.004886  3.479981E-6 
283 -11.4125 0.995984 -2.880013E-6 
284 10.6789 1.006673  4.818720E-6 
285 9.0737 1.028582  2.077964E-5 
286 -11.8711 0.989982 -7.332763E-6 
287 -10.9921 0.995194 -3.541948E-6 
288 18.8581 1.023876  1.771552E-5 
289 -12.4444 1.016339  1.220480E-5 
290 -18.8655 0.997769 -1.677689E-6 
291 10.5260 0.992060 -6.011585E-6 
292 3.0348 1.015364  1.170987E-5 
293 6.4365 1.022157  1.700053E-5 
294 -15.0434 1.003218  2.485540E-6 
295 -10.7245 1.017999  1.399520E-5 
296 -7.1700 1.012163  9.519760E-6 
297 -11.0303 0.998896 -8.701863E-7 
298 18.4759 0.998131 -1.482586E-6 
299 -12.0240 1.007058  5.634579E-6 
300 -10.4952 1.024227  1.946857E-5 
301 18.9728 1.013003  1.051733E-5 
302 -13.0942 0.999579 -3.423624E-7 
303 -16.5722 1.011806  9.674633E-6 
304 10.6407 1.026521  2.187394E-5 
305 10.9082 1.018406  1.527908E-5 
306 -12.7120 1.006653  5.558570E-6 
307 -19.4006 0.999382 -5.198966E-7 
308 -10.8774 0.994900 -4.316022E-6 
309 -14.6994 0.993549 -5.494877E-6 
310 12.0166 1.014085  1.207369E-5 
311 14.9214 1.005418  4.673913E-6 
312 8.0417 1.002383  2.069087E-6 
313 17.5586 1.014855  1.297840E-5 
314 -18.4068 0.999478 -4.591068E-7 
315 -15.7696 0.996162 -3.395335E-6 
316 -11.2596 1.009696  8.632505E-6 
317 -10.5334 1.012042  1.078907E-5 
318 -19.7828 1.014453  1.302994E-5 
319 -10.5716 1.021103  1.914481E-5 
320 -11.5654 1.006582  6.008203E-6 
321 1.9647 1.006997  6.426767E-6 
322 1.5060 1.032123  2.969017E-5 
323 -8.2402 1.006475  6.021845E-6 
324 -10.0748 1.010947  1.024365E-5 
325 18.8581 1.015591  1.467923E-5 
326 -18.6361 1.031498  2.983745E-5 
327 -5.6030 1.019867  1.893525E-5 
328 -0.0228 0.988070 -1.143981E-5 
329 -19.3241 1.013651  1.317013E-5 
330 -11.9093 1.024371  2.365609E-5 
331 -16.1136 0.983138 -1.646685E-5 
332 3.0348 1.025831  2.537820E-5 
333 -17.1073 1.003373  3.334352E-6 
334 -10.6863 0.997517 -2.468922E-6 
335 1.5442 1.009936  9.939203E-6 
336 -10.8774 1.012845  1.292642E-5 
337 -11.8329 0.997749 -2.278769E-6 
338 18.5141 1.005312  5.409623E-6 
339 17.7497 0.997485 -2.576780E-6 
340 18.7052 1.014910  1.536570E-5 
341 -18.7890 0.992373 -7.906488E-6 
342 -10.4570 0.998961 -1.083596E-6 
343 5.0605 1.017480  1.833583E-5 
344 -13.3999 1.000250  2.638969E-7 
345 -19.3623 1.004094  4.345340E-6 
346 -10.4188 1.022351  2.386167E-5 
347 -12.4444 1.006343  6.811157E-6 
348 7.7360 0.998278 -1.859353E-6 
349 -19.7445 1.003087  3.354072E-6 
350 -11.2978 1.020332  2.221641E-5 
351 -9.1957 1.014489  1.592333E-5 
352 -12.3680 1.000021  2.267419E-8 
353 8.2328 1.000740  8.221897E-7 
354 -9.3486 1.006857  7.666567E-6 
355 -13.7439 1.005480  6.162123E-6 
356 -19.7445 1.018221  2.060765E-5 
357 -10.7627 1.029366  3.340155E-5 
358 -19.4770 1.009146  1.046199E-5 
359 -10.9921 0.996382 -4.161647E-6 
360 -10.1130 1.004282  4.954244E-6 
361 -10.9156 1.001618  1.882112E-6 
362 7.9271 1.006331  7.407928E-6 
363 6.2454 1.003129  3.682217E-6 
364 -8.2020 1.012450  1.473171E-5 
365 18.1701 1.003957  4.708524E-6 
366 -11.3360 1.011545  1.381402E-5 
367 -7.8198 0.999937 -7.561614E-8 
368 -12.1769 1.019361  2.342552E-5 
369 -11.1449 1.010289  1.251756E-5 
370 -10.5716 1.003066  3.751448E-6 
371 -13.4764 1.001230  1.513600E-6 
372 17.5586 0.994367 -6.967309E-6 
373 13.9659 1.006619  8.232348E-6 
374 16.3738 0.995168 -6.042921E-6 
375 -12.5209 1.012617  1.586504E-5 
376 -10.5334 1.002950  3.729161E-6 
377 6.2836 1.002267  2.881832E-6 
378 -10.9156 1.014656  1.873212E-5 
379 -19.0948 1.005516  7.088153E-6 
380 -19.3241 0.997438 -3.309902E-6 
381 -8.6606 1.008601  1.117278E-5 
382 -18.5979 0.986390 -1.777538E-5 
383 -18.5979 1.002084  2.736709E-6 
384 -12.7502 1.023472  3.098743E-5 
385 -10.7627 1.010896  1.446200E-5 
386 -13.5910 0.999338 -8.837944E-7 
387 -9.4250 1.002912  3.906086E-6 
388 -12.2533 0.992752 -9.775210E-6 
389 0.0919 1.027115  3.676242E-5 
390 -18.2539 0.993985 -8.197826E-6 
391 -18.4833 1.017322  2.373466E-5 
392 -13.2088 0.994192 -7.999607E-6 
393 18.8199 0.999669 -4.587094E-7 
394 -17.5660 1.020521  2.856584E-5 
395 -12.1387 1.026079  3.649207E-5 
396 -9.9983 0.983093 -2.378269E-5 
397 -12.0622 1.006066  8.577321E-6 
398 -0.5579 0.998008 -2.831971E-6 
399 -12.2916 1.000619  8.847252E-7 
400 -14.1644 0.999904 -1.377397E-7 
401 -10.8774 1.018886  2.726446E-5 
402 -12.7120 1.016094  2.335457E-5 
403 -11.4125 1.006357  9.273045E-6 
404 14.6921 0.999620 -5.571600E-7 
405 -11.4507 1.020948  3.087112E-5 
406 -6.4438 0.984467 -2.300746E-5 
407 19.0492 1.023711  3.530164E-5 
408 -14.4319 1.018344  2.745061E-5 
409 6.5129 1.002975  4.474277E-6 
410 -11.8711 1.028130  4.252420E-5 
411 -8.7371 1.030961  4.704184E-5 
412 1.2003 1.021891  3.342934E-5 
413 18.1319 1.014551  2.233273E-5 
414 -18.0628 1.006107  9.420631E-6 
415 -11.1067 1.008266  1.281548E-5 
416 1.8500 0.996774 -5.026706E-6 
417 8.0417 1.012275  1.922224E-5 
418 -10.2276 1.013735  2.161617E-5 
419 -17.6806 1.018486  2.923798E-5 
420 -14.1644 1.008790  1.397262E-5 
421 -11.0685 1.017033  2.720980E-5 
422 -9.7690 1.003400  5.458053E-6 
423 -15.0434 1.015402  2.484889E-5 
424 4.4872 1.015704  2.546186E-5 
425 -11.1067 1.019837  3.232062E-5 
426 6.6658 1.013132  2.150228E-5 
427 -16.4576 0.994882 -8.420981E-6 
428 -8.7371 1.023122  3.823214E-5 
429 -11.7182 1.001762  2.927478E-6 
430 -17.7189 1.000045  7.501845E-8 
431 -9.5779 1.016324  2.738998E-5 
432 -11.5654 1.016035  2.703564E-5 
433 -11.1067 1.032719  5.543336E-5 
434 1.9647 1.015841  2.696821E-5 
435 16.8706 1.016188  2.769267E-5 
436 -16.4576 1.018601  3.197489E-5 
437 19.0874 1.010756  1.857798E-5 
438 -1.3605 1.014160  2.457616E-5 
439 -3.0040 1.007745  1.350708E-5 
440 2.2704 1.000408  7.145242E-7 
441 1.1238 1.014204  2.500818E-5 
442 -11.7182 1.000330  5.833819E-7 
443 -18.2157 1.021970  3.905161E-5 
444 -13.5146 1.007082  1.264791E-5 
445 -17.9864 0.988247 -2.109083E-5 
446 1.8118 1.049188  8.868529E-5 
447 -15.8461 1.001899  3.439419E-6 
448 -14.1644 1.014578  2.653255E-5 
449 -9.4250 1.007566  1.383469E-5 
450 -9.2721 0.975198 -4.556790E-5 
451 -9.3868 1.014140  2.609977E-5 
452 1.2003 1.006052  1.122389E-5 
453 17.7115 1.011352  2.115137E-5 
454 -15.3110 1.006807  1.274195E-5 
455 -19.9739 1.022834  4.294252E-5 
456 -10.6863 1.002304  4.352396E-6 
457 -11.2214 1.005703  1.082563E-5 
458 -10.4952 0.998955 -1.992059E-6 
459 -9.5015 0.992254 -1.484049E-5 
460 17.9790 1.002584  4.972911E-6 
461 -8.7371 1.002504  4.841840E-6 
462 -9.0810 0.994374 -1.092750E-5 
463 15.3418 0.997464 -4.948978E-6 
464 3.5317 0.993299 -1.313563E-5 
465 6.2836 0.991635 -1.647237E-5 
466 -11.8711 1.030781  6.089148E-5 
467 17.9026 1.007235  1.437855E-5 
468 -16.2665 1.021672  4.326291E-5 
469 0.5505 1.011507  2.307582E-5 
470 2.4233 1.014504  2.921738E-5 
471 -18.5215 1.005614  1.136093E-5 
472 12.8193 1.003278  6.663073E-6 
473 -10.7245 1.016800  3.430291E-5 
474 6.7422 1.025937  5.319919E-5 
475 18.5523 1.005696  1.173598E-5 
476 -16.9927 1.024081  4.983774E-5 
477 19.0110 1.009171  1.906513E-5 
478 0.0536 1.014543  3.036845E-5 
479 -18.5979 1.006554  1.374746E-5 
480 16.6795 0.997868 -4.492111E-6 
481 -10.4570 1.010152  2.148245E-5 
482 -13.2853 1.016661  3.541433E-5 
483 -11.1067 0.996209 -8.093811E-6 
484 -16.5722 1.008784  1.883724E-5 
485 -10.8774 1.020442  4.403001E-5 
486 -17.4131 1.005502  1.190317E-5 
487 8.4621 1.016231  3.526890E-5 
488 -11.9858 1.015871  3.463717E-5 
489 -11.6800 1.007725  1.693341E-5 
490 -13.1706 1.045701  1.006152E-4 
491 -12.0622 0.993989 -1.329134E-5 
492 -12.1769 1.004933  1.095489E-5 
493 -9.0428 1.010298  2.297037E-5 
494 4.5637 1.004713  1.055910E-5 
495 -12.1387 1.013740  3.091462E-5 
496 -11.3360 1.025353  5.729041E-5 
497 -18.3304 0.997772 -5.056249E-6 
498 -19.9356 1.010866  2.476704E-5 
499 -11.5271 0.998055 -4.451474E-6 
500 -14.9670 1.020806  4.783312E-5 
501 -11.8329 1.007209  1.664520E-5 
502 -9.7690 1.017353  4.023626E-5 
503 -19.8974 1.026181  6.096584E-5 
504 -10.1512 1.030058  7.029421E-5 
505 -7.8962 1.025247  5.929529E-5 
506 16.2209 1.014257  3.362588E-5 
507 -17.4513 1.017252  4.086457E-5 
508 -10.1894 1.009298  2.211575E-5 
509 -10.3423 1.006696  1.599618E-5 
510 -13.8204 0.992139 -1.885860E-5 
511 -15.1963 0.986584 -3.231792E-5 
512 -14.5848 1.003770  9.120618E-6 
513 -13.1706 1.009445  2.294552E-5 
514 -13.0942 1.014645  3.572712E-5 
515 11.2522 1.017859  4.375174E-5 
516 -9.8072 1.014462  3.557706E-5 
517 6.3982 1.008060  1.991066E-5 
518 -9.9601 1.005617  1.393449E-5 
519 -9.6161 0.999550 -1.120209E-6 
520 -10.0365 1.023445  5.864314E-5 
521 -16.3811 1.008905  2.236716E-5 
522 17.5968 1.026904  6.785576E-5 
523 -11.4507 1.012323  3.120893E-5 
524 -14.2790 1.007865  2.000231E-5 
525 -9.1575 1.014718  3.758395E-5 
526 5.4045 1.036117  9.260756E-5 
527 -11.4507 0.999738 -6.740607E-7 
528 -18.0628 1.013329  3.445878E-5 
529 -12.9413 1.027442  7.123440E-5 
530 -16.5340 1.010145  2.644367E-5 
531 -18.2539 1.014355  3.756774E-5 
532 -17.5660 1.028876  7.588029E-5 
533 -9.9601 1.014730  3.886638E-5 
534 13.6983 1.019291  5.110566E-5 
535 -9.6161 0.994834 -1.374117E-5 
536 -18.2922 1.000124  3.301005E-7 
537 -14.1644 1.015547  4.169032E-5 
538 -10.7627 1.012681  3.414433E-5 
539 2.2322 1.005999  1.621709E-5 
540 -18.9037 1.023583  6.400918E-5 
541 -12.1005 0.993988 -1.638422E-5 
542 -9.5779 1.022741  6.222235E-5 
543 -12.4444 0.999407 -1.628647E-6 
544 -10.0365 1.020255  5.586572E-5 
545 3.1113 1.021784  6.032285E-5 
546 -7.0936 0.995590 -1.225972E-5 
547 -18.5597 1.001148  3.203692E-6 
548 -18.2922 1.007231  2.026457E-5 
549 -18.3304 0.978126 -6.154102E-5 
550 -15.8461 1.020890  5.900648E-5 
551 -16.0372 0.994422 -1.581717E-5 
552 -4.8003 1.034127  9.715958E-5 
553 2.2322 0.999209 -2.260412E-6 
554 9.4559 1.007464  2.141702E-5 
555 -8.1637 1.011567  3.332336E-5 
