Filename:	Wind_Profile_100_20181024_022040.hpl
System ID:	100
Number of gates:	556
Range gate length (m):	18.0
Gate length (pts):	6
Pulses/ray:	1500
No. of rays in file:	3
Scan type:	Wind profile
Focus range:	65535
Start time:	20181024 02:20:47.86
Resolution (m/s):	0.0382
Altitude of measurement (center of gate) = (range gate + 0.5) * Gate length
Data line 1: Decimal time (hours)  Azimuth (degrees)  Elevation (degrees) Pitch (degrees) Roll (degrees)
f9.6,1x,f6.2,1x,f6.2
Data line 2: Range Gate  Doppler (m/s)  Intensity (SNR + 1)  Beta (m-1 sr-1)
i3,1x,f6.4,1x,f8.6,1x,e12.6 - repeat for no. gates
****
 2.346600  91.00  90.00 -0.00 0.09
  0 -0.3286 0.773449 -1.275593E-5
  1 -1.0547 0.752864 -1.392427E-5
  2 -1.0547 1.103467  5.834995E-6
  3 -0.6343 1.031467  1.776670E-6
  4 -0.4050 1.014630  8.272527E-7
  5 0.3976 1.022684  1.284828E-6
  6 -1.7809 1.020940  1.188334E-6
  7 -0.3668 1.018211  1.035756E-6
  8 0.5123 1.019733  1.125065E-6
  9 -1.5898 1.032824  1.876530E-6
 10 0.2830 1.008197  4.700131E-7
 11 -0.3286 1.018443  1.060867E-6
 12 0.0919 1.027502  1.587433E-6
 13 -0.2139 1.016302  9.444299E-7
 14 -0.3668 1.045116  2.623987E-6
 15 -1.4370 1.009395  5.487033E-7
 16 0.6652 1.003578  2.099102E-7
 17 -0.4432 1.012123  7.144299E-7
 18 -0.1757 1.028026  1.659672E-6
 19 0.3212 1.050682  3.016626E-6
 20 -1.0165 1.024109  1.442632E-6
 21 -0.7872 1.014044  8.450258E-7
 22 -0.3286 1.008833  5.345192E-7
 23 -0.5197 1.035664  2.171095E-6
 24 -0.5197 1.035228  2.157774E-6
 25 -0.1375 0.997247 -1.697003E-7
 26 -0.3286 1.010101  6.267421E-7
 27 -1.1694 1.031157  1.946370E-6
 28 -0.3286 1.000647  4.071604E-8
 29 -0.5579 1.000036  2.292745E-9
 30 -1.0547 1.007455  4.758012E-7
 31 -0.4814 1.018061  1.161390E-6
 32 -0.4050 1.007428  4.813086E-7
 33 -0.5197 1.027130  1.771819E-6
 34 -0.9401 1.016591  1.092303E-6
 35 -0.8254 1.002534  1.682278E-7
 36 -0.9783 1.001345  9.004206E-8
 37 -0.2521 1.023367  1.577346E-6
 38 -1.1694 1.020776  1.414636E-6
 39 0.0536 1.013622  9.357117E-7
 40 -0.0228 1.028066  1.945269E-6
 41 -0.1757 1.022157  1.549670E-6
 42 -0.0610 1.039635  2.797825E-6
 43 -0.5197 1.028162  2.006625E-6
 44 -0.0228 1.019903  1.431647E-6
 45 0.0154 1.043250  3.140963E-6
 46 -0.5197 1.024184  1.773420E-6
 47 -0.2903 1.017631  1.305683E-6
 48 -0.0992 1.035209  2.633443E-6
 49 -0.2139 1.049214  3.718065E-6
 50 -0.7490 1.047772  3.645918E-6
 51 -0.0610 1.037505  2.891847E-6
 52 -0.4814 1.021440  1.670268E-6
 53 -0.1757 0.986887 -1.032270E-6
 54 -0.2521 1.009702  7.718389E-7
 55 -1.6281 1.013106  1.053751E-6
 56 -1.0547 1.036555  2.970571E-6
 57 -0.1757 1.007103  5.834268E-7
 58 -0.5579 1.008435  7.004082E-7
 59 -1.0165 1.009239  7.755672E-7
 60 -1.4752 0.995005 -4.239269E-7
 61 0.5123 1.015988  1.371956E-6
 62 -1.4370 1.005253  4.557863E-7
 63 -4.9150 0.991157 -7.758281E-7
 64 16.7942 0.991477 -7.561716E-7
 65 -19.4006 0.996499 -3.141195E-7
 66 14.8067 1.033479  3.038105E-6
 67 -1.3605 0.998550 -1.331217E-7
 68 17.1000 0.989058 -1.015787E-6
 69 0.7416 1.028778  2.702182E-6
 70 16.1062 1.010857  1.031207E-6
 71 10.8318 1.026697  2.564940E-6
 72 8.5004 1.010234  9.946061E-7
 73 0.4741 1.002506  2.463853E-7
 74 -13.0560 1.019771  1.966517E-6
 75 -2.5453 1.001814  1.825417E-7
 76 -1.1694 1.009886  1.006386E-6
 77 18.0172 0.999160 -8.651496E-8
 78 -2.2396 1.027515  2.867059E-6
 79 -2.8893 1.013740  1.448544E-6
 80 -6.1763 1.000576  6.147570E-8
 81 10.7554 0.990376 -1.038628E-6
 82 -9.9219 0.985251 -1.610460E-6
 83 11.0993 1.023780  2.627311E-6
 84 -0.5197 1.018134  2.027190E-6
 85 0.6270 1.017943  2.029452E-6
 86 18.7434 1.029331  3.356725E-6
 87 1.6971 1.019574  2.266562E-6
 88 -10.4570 0.990763 -1.082281E-6
 89 0.5505 0.992667 -8.693737E-7
 90 -2.3160 1.004252  5.100582E-7
 91 -2.0103 0.990644 -1.135531E-6
 92 -10.2276 1.000697  8.554764E-8
 93 8.5768 1.013519  1.679739E-6
 94 16.5649 1.025484  3.203722E-6
 95 8.3475 0.988365 -1.479973E-6
 96 -9.8837 0.975574 -3.143538E-6
 97 0.8945 1.008051  1.048298E-6
 98 -3.0804 1.034752  4.578313E-6
 99 -0.3668 1.008088  1.078097E-6
100 17.8644 1.013743  1.853325E-6
101 1.6207 1.006021  8.214472E-7
102 -19.8592 0.985126 -2.053091E-6
103 -0.2139 0.974788 -3.520609E-6
104 18.3230 1.025365  3.583314E-6
105 -3.0804 0.999610 -5.573807E-8
106 -1.8574 1.010571  1.528363E-6
107 18.4759 0.988058 -1.746630E-6
108 2.3469 0.988599 -1.686734E-6
109 -1.5516 1.003083  4.614639E-7
110 -1.6663 1.006799  1.029238E-6
111 -1.5516 1.020073  3.073957E-6
112 10.2203 1.018390  2.848505E-6
113 15.7622 1.005795  9.078615E-7
114 13.2397 1.002167  3.433274E-7
115 7.7360 0.999664 -5.384604E-8
116 12.4371 1.001715  2.780139E-7
117 16.0680 1.006060  9.935512E-7
118 0.1683 0.995163 -8.021044E-7
119 -1.7427 1.017059  2.860595E-6
120 -9.9601 1.018242  3.093635E-6
121 -10.8010 0.999056 -1.619352E-7
122 0.3594 1.008795  1.525319E-6
123 18.5141 1.008843  1.550732E-6
124 0.1301 0.989793 -1.809946E-6
125 -0.4432 1.017462  3.131166E-6
126 -1.1312 1.002373  4.303063E-7
127 6.4747 1.015364  2.816437E-6
128 15.3800 0.988700 -2.094464E-6
129 -0.8636 1.008824  1.653610E-6
130 -1.6281 0.996389 -6.840445E-7
131 -0.5579 1.000541  1.036228E-7
132 5.3281 0.987854 -2.351765E-6
133 -0.9019 1.012244  2.396598E-6
134 -19.2859 1.005071  1.003523E-6
135 -0.4814 1.000638  1.275549E-7
136 -17.2602 1.015110  3.055147E-6
137 -2.9275 1.008238  1.683520E-6
138 -0.9019 1.007684  1.587183E-6
139 -2.3542 1.014750  3.079517E-6
140 0.4358 1.003787  7.991671E-7
141 16.7942 0.980639 -4.129099E-6
142 -2.7364 1.020543  4.427767E-6
143 17.6733 0.986312 -2.981651E-6
144 -0.2521 1.005193  1.143074E-6
145 18.4377 1.001443  3.210619E-7
146 -2.5071 0.990210 -2.200514E-6
147 -2.3160 1.019420  4.411008E-6
148 0.0154 1.011644  2.672463E-6
149 -8.0873 1.030671  7.112510E-6
150 7.9653 0.994137 -1.373673E-6
151 -0.3668 1.015628  3.699400E-6
152 0.0154 0.995390 -1.102605E-6
153 -10.6481 1.010586  2.557696E-6
154 -2.3160 1.001780  4.345301E-7
155 -2.0103 0.995633 -1.076947E-6
156 18.4759 1.005530  1.377639E-6
157 2.0793 1.001592  4.005676E-7
158 -0.8254 0.981625 -4.670379E-6
159 -12.9795 1.015804  4.057467E-6
160 -2.4307 1.010369  2.688891E-6
161 -0.3286 0.988268 -3.072749E-6
162 0.1683 1.016845  4.456107E-6
163 -0.6725 1.003544  9.468034E-7
164 -7.2465 0.993244 -1.822908E-6
165 -19.1712 0.994499 -1.498853E-6
166 1.2385 0.993911 -1.675428E-6
167 0.2065 1.023527  6.537364E-6
168 -2.8511 1.000197  5.518577E-8
169 -1.9338 1.019069  5.402926E-6
170 -1.2841 0.992469 -2.154613E-6
171 0.4741 0.993369 -1.915435E-6
172 16.1444 0.993084 -2.017221E-6
173 -10.9538 0.995018 -1.466970E-6
174 -1.9720 1.019303  5.738688E-6
175 -1.4370 0.992241 -2.328758E-6
176 -0.0610 1.021372  6.475837E-6
177 6.8951 0.998946 -3.222948E-7
178 -2.0485 1.019175  5.920813E-6
179 -4.8003 0.993185 -2.124379E-6
180 -0.0228 1.013930  4.382920E-6
181 15.3800 1.002286  7.260552E-7
182 -10.0365 1.008839  2.833344E-6
183 -19.8592 1.019335  6.255949E-6
184 9.3030 0.990691 -3.039834E-6
185 9.1501 1.001053  3.470987E-7
186 -0.8636 1.002283  7.593201E-7
187 -10.3041 0.983182 -5.645631E-6
188 17.9026 1.014303  4.845514E-6
189 -0.2139 1.008905  3.044319E-6
190 -3.1951 1.001806  6.229790E-7
191 -0.9783 1.019058  6.634612E-6
192 -0.5579 1.015054  5.288133E-6
193 -1.5134 1.029522  1.046378E-5
194 -1.3223 1.012570  4.495334E-6
195 -1.1312 1.007688  2.774177E-6
196 0.0154 0.999827 -6.283854E-8
197 -19.3241 0.989442 -3.878167E-6
198 0.5887 1.012077  4.475369E-6
199 -0.0992 1.018446  6.896090E-6
200 10.0292 0.991463 -3.219784E-6
201 -1.6663 0.999436 -2.144884E-7
202 18.8199 1.006430  2.467717E-6
203 17.0617 0.991446 -3.311699E-6
204 16.8706 0.998648 -5.278521E-7
205 -8.5077 1.005651  2.226182E-6
206 -7.8580 1.012383  4.920054E-6
207 -1.3223 1.014612  5.855777E-6
208 -2.1631 1.000367  1.481875E-7
209 -10.5334 1.003873  1.578956E-6
210 -0.3668 1.019094  7.850649E-6
211 7.6595 0.998977 -4.243157E-7
212 -3.0422 1.002220  9.284652E-7
213 -1.3223 1.005774  2.434920E-6
214 2.1175 0.990390 -4.087113E-6
215 -1.7045 1.016307  6.993422E-6
216 -0.2903 1.010865  4.698784E-6
217 -0.1757 1.007103  3.097540E-6
218 16.4120 1.020558  9.039260E-6
219 -1.2841 1.007351  3.259151E-6
220 17.3675 0.995316 -2.093809E-6
221 -10.0365 1.014583  6.572634E-6
222 17.5968 0.997467 -1.150861E-6
223 18.2466 1.014458  6.623976E-6
224 -0.8636 0.983524 -7.610107E-6
225 11.2905 0.992388 -3.544832E-6
226 -2.7747 0.988158 -5.559430E-6
227 -0.5961 0.985293 -6.960256E-6
228 -1.9720 1.011989  5.719763E-6
229 -0.7490 1.022142  1.064830E-5
230 -0.1375 1.017133  8.305682E-6
231 -0.8636 1.004564  2.230448E-6
232 16.5266 1.025368  1.249486E-5
233 9.9527 1.021598  1.072299E-5
234 14.1188 1.017624  8.819256E-6
235 17.0235 1.018399  9.280023E-6
236 -11.5654 1.012913  6.564034E-6
237 -0.2903 1.000426  2.181764E-7
238 -0.2903 0.993695 -3.255675E-6
239 -10.7245 1.010858  5.650285E-6
240 -5.6794 0.985493 -7.607763E-6
241 13.6219 1.005010  2.647547E-6
242 -9.1575 0.989765 -5.451262E-6
243 10.1438 1.014258  7.652328E-6
244 0.3212 1.012050  6.517120E-6
245 -0.4050 0.992287 -4.203659E-6
246 -0.4050 1.007595  4.170520E-6
247 -9.3868 1.028342  1.568231E-5
248 -0.3668 1.013876  7.736334E-6
249 0.5887 0.979543 -1.149182E-5
250 -8.8517 0.991985 -4.536669E-6
251 -3.4626 0.999355 -3.679294E-7
252 -0.0228 0.985556 -8.299085E-6
253 18.5141 1.017877  1.034831E-5
254 -0.3668 1.007486  4.365696E-6
255 -0.6343 1.003461  2.033463E-6
256 14.4245 1.014115  8.354668E-6
257 -0.0228 0.978555 -1.278709E-5
258 -0.8254 1.001766  1.060633E-6
259 17.9790 1.001067  6.454627E-7
260 0.8563 1.017601  1.072833E-5
261 -2.1249 1.004585  2.815027E-6
262 -10.1130 1.016833  1.041080E-5
263 -0.1757 0.994565 -3.385851E-6
264 14.7303 1.013131  8.239687E-6
265 -12.9413 0.999860 -8.839773E-8
266 0.0154 0.992613 -4.702630E-6
267 16.3738 1.002034  1.304183E-6
268 -0.3668 0.980853 -1.236497E-5
269 -0.7490 1.008446  5.493075E-6
270 13.6219 1.001776  1.163344E-6
271 -0.4432 0.993874 -4.041467E-6
272 -0.7108 0.993258 -4.478895E-6
273 18.2848 1.011760  7.868023E-6
274 0.2830 1.010718  7.221703E-6
275 -6.5967 1.014840  1.006934E-5
276 10.2203 1.001878  1.283222E-6
277 2.6909 1.031338  2.156252E-5
278 -10.4952 1.004146  2.872700E-6
279 -1.0930 1.012571  8.770380E-6
280 7.2391 0.992068 -5.572573E-6
281 0.9327 1.006278  4.441190E-6
282 -1.0930 0.994336 -4.034003E-6
283 -3.2333 1.008821  6.325872E-6
284 0.0536 0.995570 -3.198965E-6
285 12.7810 1.003280  2.384973E-6
286 -1.2076 0.991567 -6.172525E-6
287 -1.7427 0.997817 -1.608716E-6
288 2.0793 1.007135  5.294206E-6
289 0.6270 0.998552 -1.081459E-6
290 18.9728 0.992199 -5.866429E-6
291 13.8130 1.002543  1.925466E-6
292 14.8450 1.030328  2.311518E-5
293 0.3212 1.005378  4.126257E-6
294 18.2848 0.993677 -4.883569E-6
295 6.4747 0.997407 -2.016445E-6
296 7.5831 1.007340  5.745238E-6
297 15.2272 1.010648  8.389865E-6
298 6.0543 1.020678  1.639964E-5
299 -1.3987 1.013010  1.038608E-5
300 17.3675 0.992580 -5.962208E-6
301 -0.0992 1.013283  1.074400E-5
302 -0.7490 0.993203 -5.533397E-6
303 0.8945 0.992194 -6.396797E-6
304 -7.9726 1.008690  7.167503E-6
305 -19.7063 1.005841  4.848714E-6
306 17.1382 1.020979  1.752746E-5
307 -0.7108 1.006121  5.147137E-6
308 10.5643 1.021559  1.824504E-5
309 17.0235 0.997333 -2.271492E-6
310 0.7798 1.025154  2.156119E-5
311 -2.0103 0.983001 -1.466405E-5
312 -0.4432 1.011731  1.018437E-5
313 -1.6281 1.016254  1.420055E-5
314 -1.2841 1.012489  1.098039E-5
315 -0.0228 0.996498 -3.098376E-6
316 6.5129 1.007246  6.451235E-6
317 -8.9664 1.007911  7.087481E-6
318 -1.3605 0.996454 -3.197052E-6
319 17.0617 1.014710  1.334500E-5
320 -2.8511 1.030308  2.766691E-5
321 -10.3423 1.000872  8.014134E-7
322 11.9784 0.998821 -1.089746E-6
323 8.9208 1.000305  2.837346E-7
324 -2.6982 1.002748  2.571291E-6
325 -1.3223 1.021035  1.980422E-5
326 0.6270 1.001175  1.113524E-6
327 0.2447 1.015184  1.447231E-5
328 -11.2978 1.011862  1.137466E-5
329 -0.2521 1.000965  9.305356E-7
330 -1.7427 1.015962  1.549383E-5
331 7.3537 0.993026 -6.810175E-6
332 0.7416 1.000069  6.781391E-8
333 0.6652 1.019436  1.921049E-5
334 12.2460 1.003613  3.593155E-6
335 16.6031 1.005308  5.309435E-6
336 17.3675 1.012984  1.306622E-5
337 0.2447 0.999650 -3.546713E-7
338 2.7291 1.021076  2.146430E-5
339 18.2083 1.017179  1.760004E-5
340 -7.4758 0.995220 -4.925903E-6
341 0.8563 0.990630 -9.713620E-6
342 -1.4370 1.007789  8.122458E-6
343 -0.7108 1.009576  1.004523E-5
344 17.6733 1.020583  2.171848E-5
345 -10.4952 1.005330  5.656801E-6
346 6.8187 1.022129  2.362460E-5
347 -12.1005 1.024086  2.586365E-5
348 -1.9338 1.010091  1.089955E-5
349 17.6733 1.002314  2.513588E-6
350 -0.0228 1.023210  2.536116E-5
351 -0.2521 0.997665 -2.565692E-6
352 0.5505 1.011557  1.277392E-5
353 -3.0040 1.014420  1.603063E-5
354 -19.7445 1.017581  1.965732E-5
355 -1.2458 1.001047  1.177476E-6
356 -0.2139 1.018568  2.099999E-5
357 -9.5397 1.009397  1.068866E-5
358 1.5825 0.996646 -3.836580E-6
359 -3.1951 0.999249 -8.638173E-7
360 -1.0930 0.997761 -2.590047E-6
361 -0.0228 0.990560 -1.098270E-5
362 17.7879 1.010182  1.191314E-5
363 -0.3286 1.027024  3.179699E-5
364 -0.0610 1.003459  4.092925E-6
365 -1.0930 1.006091  7.247030E-6
366 0.9327 0.999155 -1.010910E-6
367 -1.5134 1.027148  3.266432E-5
368 -1.0547 1.007061  8.543429E-6
369 -3.5009 1.014024  1.706163E-5
370 9.4941 1.015633  1.912496E-5
371 -3.2715 0.998737 -1.553075E-6
372 17.6350 1.002312  2.860123E-6
373 0.7034 1.016269  2.023432E-5
374 -9.1193 0.995933 -5.085607E-6
375 0.1683 1.002562  3.221178E-6
376 -1.8574 0.992548 -9.421675E-6
377 -1.3605 1.003813  4.847539E-6
378 -1.8574 1.004513  5.767698E-6
379 0.4741 0.995587 -5.671263E-6
380 -0.9401 0.978982 -2.715612E-5
381 17.2146 1.004176  5.425068E-6
382 -0.4814 1.001236  1.614826E-6
383 -11.2978 0.994123 -7.716855E-6
384 9.3794 0.990892 -1.202399E-5
385 -0.9401 1.024767  3.287203E-5
386 -2.3925 0.993258 -8.995585E-6
387 -1.4370 1.006718  9.012161E-6
388 -2.3542 1.005849  7.887863E-6
389 -11.3360 1.016004  2.169806E-5
390 -1.5134 0.997418 -3.519254E-6
391 -0.8254 1.008591  1.177198E-5
392 18.7052 0.989144 -1.495364E-5
393 -2.8893 0.988465 -1.597247E-5
394 -1.3987 1.017402  2.422387E-5
395 -19.0566 0.992034 -1.114659E-5
396 -10.7245 0.992348 -1.076431E-5
397 -0.9783 1.001988  2.811457E-6
398 0.9327 1.006791  9.651893E-6
399 -10.2276 0.999353 -9.240733E-7
400 -4.6092 1.015688  2.253138E-5
401 -1.2841 0.994999 -7.220010E-6
402 -12.2916 1.000578  8.384066E-7
403 -0.2139 0.997044 -4.312246E-6
404 -1.0165 1.016524  2.422692E-5
405 -0.5197 1.003505  5.164550E-6
406 -0.7108 0.996199 -5.630181E-6
407 -2.8511 0.996467 -5.260203E-6
408 -1.0165 1.011764  1.760462E-5
409 17.3675 1.012972  1.951009E-5
410 18.5906 0.996241 -5.682221E-6
411 -0.8254 1.030801  4.679899E-5
412 -13.4382 1.014035  2.143323E-5
413 3.7228 1.024889  3.819951E-5
414 -0.1375 0.997355 -4.079509E-6
415 -0.4432 1.009869  1.529978E-5
416 16.9089 0.996099 -6.078380E-6
417 13.6983 1.019590  3.067625E-5
418 18.6288 1.002748  4.325486E-6
419 -0.6725 1.009620  1.521609E-5
420 -2.5071 1.010463  1.663090E-5
421 -0.3668 0.980591 -3.100552E-5
422 8.2328 1.001087  1.745823E-6
423 17.0235 0.998972 -1.658229E-6
424 2.4998 1.001702  2.759169E-6
425 -0.6343 1.021303  3.470950E-5
426 -0.9401 0.998825 -1.923995E-6
427 -1.2841 0.994003 -9.867222E-6
428 0.5505 0.996919 -5.094553E-6
429 -19.7828 1.001417  2.353949E-6
430 -1.3605 1.005089  8.497720E-6
431 15.0361 0.991294 -1.460760E-5
432 11.6344 1.013559  2.286045E-5
433 -2.7747 1.005719  9.689817E-6
434 1.0474 0.993849 -1.047253E-5
435 -3.5009 0.999238 -1.302777E-6
436 9.1119 1.028240  4.854327E-5
437 10.0292 1.005391  9.311158E-6
438 7.1244 1.000739  1.283026E-6
439 19.0874 1.002614  4.559173E-6
440 -2.5836 1.016538  2.897896E-5
441 -1.7427 1.018258  3.214712E-5
442 0.5887 1.012670  2.241463E-5
443 6.7040 1.025603  4.551057E-5
444 9.3412 1.013183  2.354395E-5
445 -1.8192 1.002398  4.303967E-6
446 -4.8768 1.020919  3.771690E-5
447 -1.5134 1.013282  2.406036E-5
448 9.9527 1.003098  5.639171E-6
449 14.7685 1.012779  2.336892E-5
450 -5.6412 0.995438 -8.381700E-6
451 -13.0177 1.012313  2.272874E-5
452 -2.5071 1.002788  5.169895E-6
453 8.2710 0.999375 -1.164367E-6
454 -1.3223 0.991282 -1.631859E-5
455 0.5505 1.015983  3.005791E-5
456 9.3794 0.998961 -1.962847E-6
457 0.5123 1.000401  7.614154E-7
458 0.4741 0.997490 -4.785518E-6
459 -16.1136 0.989886 -1.937634E-5
460 9.1501 0.983529 -3.170037E-5
461 -11.2596 0.984025 -3.088722E-5
462 11.9784 1.013076  2.539977E-5
463 0.3594 1.023895  4.662721E-5
464 17.7497 1.003798  7.445945E-6
465 -7.6287 1.002975  5.857525E-6
466 19.0110 0.999409 -1.168955E-6
467 0.2447 1.010561  2.098702E-5
468 -9.3486 1.000954  1.903659E-6
469 0.8563 0.984933 -3.021505E-5
470 -10.2276 0.997556 -4.924294E-6
471 15.7240 1.005903  1.194595E-5
472 16.9471 1.016955  3.446494E-5
473 9.4559 1.016331  3.334614E-5
474 -9.8837 1.025126  5.153633E-5
475 7.5831 1.010491  2.161399E-5
476 18.2083 1.013511  2.796189E-5
477 -5.2590 1.000213  4.430421E-7
478 -2.5836 1.001833  3.827655E-6
479 0.0919 0.994766 -1.097792E-5
480 -11.2978 0.996811 -6.719352E-6
481 -1.9338 1.006707  1.419338E-5
482 -3.4626 0.984732 -3.245198E-5
483 -1.8956 1.007821  1.669680E-5
484 18.2848 1.002456  5.267600E-6
485 -1.2841 1.019107  4.115439E-5
486 0.2830 1.013774  2.979876E-5
487 10.1438 0.995363 -1.007489E-5
488 14.6156 0.984654 -3.349122E-5
489 17.7115 1.009041  1.981785E-5
490 -0.8636 1.002941  6.475835E-6
491 14.9596 1.005259  1.162903E-5
492 -11.0685 1.005527  1.227557E-5
493 1.3531 1.005778  1.288862E-5
494 -0.9401 1.019287  4.320684E-5
495 1.0474 1.018379  4.135282E-5
496 18.1701 1.004921  1.112062E-5
497 1.7736 1.010883  2.469839E-5
498 -10.3041 0.990375 -2.193868E-5
499 9.8763 1.012783  2.926270E-5
500 11.7109 1.005979  1.374639E-5
501 11.5580 1.013513  3.119957E-5
502 -1.4370 1.009200  2.133218E-5
503 -1.8192 1.010467  2.437398E-5
504 11.9402 1.017077  3.993689E-5
505 -10.5716 1.027357  6.425133E-5
506 -2.3925 1.005350  1.261757E-5
507 -9.6543 0.996648 -7.938917E-6
508 11.6344 1.015024  3.573771E-5
509 0.3976 1.001506  3.596560E-6
510 7.1244 0.991530 -2.031736E-5
511 15.6476 0.994130 -1.414033E-5
512 8.2710 1.016363  3.958357E-5
513 10.9082 1.005634  1.368706E-5
514 14.9214 1.004087  9.970929E-6
515 18.8963 0.991167 -2.163911E-5
516 -8.8517 1.002239  5.507675E-6
517 -2.4307 1.019635  4.850422E-5
518 8.9208 0.983785 -4.022460E-5
519 16.1827 0.981672 -4.565509E-5
520 -2.0867 1.024769  6.195686E-5
521 3.0731 1.019125  4.803815E-5
522 -11.4507 0.995299 -1.185660E-5
523 8.5004 1.008263  2.092732E-5
524 17.7497 1.014080  3.580556E-5
525 -3.9213 0.991943 -2.057460E-5
526 -2.6218 1.002615  6.704962E-6
527 15.5711 0.980258 -5.082864E-5
528 -0.7490 0.993579 -1.659925E-5
529 17.9790 1.016589  4.306125E-5
530 1.8500 1.025802  6.725135E-5
531 11.0611 1.009202  2.408294E-5
532 16.2591 1.014462  3.800379E-5
533 7.2391 1.020286  5.352449E-5
534 -10.2659 1.022043  5.839852E-5
535 17.7115 1.012141  3.229641E-5
536 9.7616 0.996619 -9.029695E-6
537 10.9082 0.996567 -9.206528E-6
538 -0.3286 1.012489  3.362725E-5
539 -0.6343 1.001180  3.190989E-6
540 -1.6281 1.007721  2.095675E-5
541 -0.5579 1.003208  8.740899E-6
542 9.5323 1.007686  2.103085E-5
543 -0.6343 1.003319  9.118610E-6
544 18.5141 1.011326  3.123697E-5
545 -3.1951 1.012887  3.568481E-5
546 -0.7108 1.001027  2.854785E-6
547 -3.4244 1.007558  2.109666E-5
548 -10.4952 0.997451 -7.144250E-6
549 -2.0103 1.006795  1.911877E-5
550 -1.2076 1.003635  1.026871E-5
551 2.3087 1.009090  2.577791E-5
552 -3.5391 1.026381  7.510905E-5
553 -0.9019 1.011585  3.311336E-5
554 0.0154 0.997426 -7.385530E-6
555 -1.4752 0.996532 -9.990606E-6
 2.347914 360.00  10.00 -0.00 0.09
  0 -0.1375 0.842404 -8.873399E-6 
  1 -1.3605 0.828367 -9.670273E-6 
  2 -6.9407 1.090235  5.088817E-6 
  3 -1.6281 1.035656  2.013188E-6 
  4 9.9910 1.030346  1.715872E-6 
  5 -0.9401 1.038943  2.205698E-6 
  6 -17.6424 1.031712  1.799630E-6 
  7 -7.8198 1.009359  5.323137E-7 
  8 -0.9783 1.030500  1.738940E-6 
  9 -7.6669 1.028633  1.636910E-6 
 10 -17.2602 1.002431  1.393808E-7 
 11 -0.5197 1.018153  1.044198E-6 
 12 -14.9288 1.017161  9.905264E-7 
 13 -6.1381 1.022671  1.313414E-6 
 14 -0.2903 1.027060  1.573799E-6 
 15 -7.3993 1.012046  7.035101E-7 
 16 -7.2465 1.028296  1.659849E-6 
 17 -2.1631 1.029273  1.725159E-6 
 18 -5.2208 1.022808  1.350677E-6 
 19 0.7034 1.032260  1.920130E-6 
 20 8.5386 1.034306  2.052795E-6 
 21 10.4496 1.035242  2.120493E-6 
 22 1.2767 1.003020  1.827798E-7 
 23 -1.8574 1.011852  7.215292E-7 
 24 -19.8210 1.020678  1.266542E-6 
 25 -18.5979 1.016999  1.047890E-6 
 26 9.3794 1.009685  6.009530E-7 
 27 -6.9025 1.005725  3.576432E-7 
 28 -17.6424 0.999234 -4.817905E-8 
 29 -1.3987 0.992803 -4.559540E-7 
 30 -16.7633 1.018106  1.155582E-6 
 31 0.6652 1.042392  2.725919E-6 
 32 -0.9401 1.025465  1.650097E-6 
 33 -5.9087 0.997709 -1.496405E-7 
 34 0.8181 1.028039  1.845945E-6 
 35 -7.3229 1.022912  1.520811E-6 
 36 -4.5328 1.009735  6.516075E-7 
 37 -17.9864 1.016666  1.125024E-6 
 38 -0.1757 1.015905  1.083010E-6 
 39 -6.2145 1.030359  2.085446E-6 
 40 9.4941 1.017340  1.201815E-6 
 41 1.6971 1.015647  1.094376E-6 
 42 8.2328 1.039109  2.760672E-6 
 43 -9.1957 1.025634  1.826474E-6 
 44 -18.4068 1.017331  1.246648E-6 
 45 -0.4432 1.050224  3.647397E-6 
 46 6.0543 1.033418  2.450562E-6 
 47 5.9014 1.023847  1.765996E-6 
 48 -8.0491 1.034729  2.597553E-6 
 49 -12.5973 1.017307  1.307566E-6 
 50 -6.8643 1.009126  6.964997E-7 
 51 -19.0948 1.016492  1.271634E-6 
 52 7.5831 1.030827  2.401608E-6 
 53 -17.9864 0.995276 -3.719196E-7 
 54 9.8381 1.044783  3.562601E-6 
 55 -18.4068 1.022853  1.837414E-6 
 56 -19.1712 1.003410  2.771011E-7 
 57 -11.9476 1.022984  1.887916E-6 
 58 -5.1443 1.014706  1.221113E-6 
 59 -14.9288 1.006155  5.166978E-7 
 60 -8.6606 0.993149 -5.814776E-7 
 61 0.8181 1.018380  1.577184E-6 
 62 -17.9864 1.024178  2.097785E-6 
 63 -16.6869 1.009502  8.337101E-7 
 64 7.2391 1.002158  1.914824E-7 
 65 -19.2095 1.012785  1.147184E-6 
 66 -18.7508 1.022384  2.031259E-6 
 67 -19.5534 1.020569  1.887812E-6 
 68 -6.2145 1.022896  2.125502E-6 
 69 -5.9470 1.036425  3.420160E-6 
 70 -16.6487 1.019655  1.866784E-6 
 71 -7.8198 1.020144  1.935395E-6 
 72 5.0605 1.017420  1.693012E-6 
 73 -6.2145 1.003384  3.327129E-7 
 74 10.7936 1.019229  1.912544E-6 
 75 -8.5077 1.029332  2.951477E-6 
 76 17.6733 1.016219  1.651088E-6 
 77 -8.3166 1.000758  7.809063E-8 
 78 -17.5278 1.013327  1.388734E-6 
 79 -3.9977 1.010776  1.136038E-6 
 80 -9.1575 1.022743  2.425953E-6 
 81 -9.3104 1.019089  2.060172E-6 
 82 9.3794 1.013622  1.487470E-6 
 83 -6.9789 1.032648  3.607018E-6 
 84 8.0035 1.030855  3.449174E-6 
 85 -13.7821 1.008296  9.383112E-7 
 86 -6.9789 0.993877 -7.007441E-7 
 87 -6.9025 1.019675  2.278353E-6 
 88 1.1620 1.011988  1.404547E-6 
 89 -19.1712 1.002376  2.816912E-7 
 90 -9.5015 1.017166  2.059029E-6 
 91 18.0172 0.989971 -1.217146E-6 
 92 -7.9344 1.010395  1.276564E-6 
 93 -16.3047 1.007687  9.551490E-7 
 94 -17.6806 1.010953  1.376973E-6 
 95 -6.3292 1.030819  3.920108E-6 
 96 -19.7445 0.982413 -2.263369E-6 
 97 -8.0873 1.008527  1.110249E-6 
 98 -8.5460 1.022361  2.945849E-6 
 99 5.7867 1.016476  2.196137E-6 
100 -9.3486 1.018617  2.510558E-6 
101 -14.1261 1.014256  1.944969E-6 
102 -5.2590 1.018818  2.597488E-6 
103 18.8963 0.994495 -7.687052E-7 
104 -18.0246 1.033330  4.708516E-6 
105 4.4108 0.993276 -9.609942E-7 
106 8.3857 1.005513  7.969881E-7 
107 13.0104 0.994007 -8.765485E-7 
108 11.6727 1.006022  8.909166E-7 
109 -19.7828 1.015797  2.364162E-6 
110 8.8443 1.011406  1.726713E-6 
111 -7.5522 1.028681  4.391999E-6 
112 7.5831 1.019547  3.027764E-6 
113 -17.9482 1.029474  4.617854E-6 
114 11.6344 1.011672  1.849614E-6 
115 -15.3492 1.010517  1.685663E-6 
116 -7.9726 1.028978  4.697455E-6 
117 -18.2922 1.023052  3.779401E-6 
118 -8.0109 1.001629  2.701586E-7 
119 10.2967 1.000460  7.718240E-8 
120 -16.9162 1.030225  5.125755E-6 
121 0.9709 1.021015  3.603953E-6 
122 -9.3486 1.012138  2.105035E-6 
123 18.0937 1.003803  6.669148E-7 
124 -6.5585 1.015463  2.742126E-6 
125 15.8769 0.992869 -1.278696E-6 
126 -6.7496 0.997043 -5.361577E-7 
127 7.0098 1.022350  4.097200E-6 
128 -7.3611 0.997371 -4.872301E-7 
129 5.3281 1.014119  2.645847E-6 
130 -17.8717 0.995207 -9.080547E-7 
131 -6.3674 1.018280  3.501322E-6 
132 8.5386 0.997971 -3.929108E-7 
133 -17.9482 1.016304  3.191504E-6 
134 8.8826 1.000045  8.954478E-9 
135 9.1119 1.031146  6.229866E-6 
136 -9.1575 1.006249  1.263446E-6 
137 9.0354 1.005745  1.174013E-6 
138 1.3531 1.009722  2.008164E-6 
139 4.7548 1.007381  1.540961E-6 
140 -17.7953 1.005364  1.131931E-6 
141 -17.5278 0.992814 -1.532462E-6 
142 -17.6424 1.003418  7.366249E-7 
143 6.5893 1.024465  5.329073E-6 
144 -5.9087 1.028544  6.283274E-6 
145 12.7428 1.016885  3.755998E-6 
146 -18.2157 1.007171  1.611940E-6 
147 10.6025 1.006010  1.365070E-6 
148 8.9590 1.004291  9.848026E-7 
149 -16.8398 1.029299  6.794237E-6 
150 -6.9025 1.018078  4.235705E-6 
151 -18.2922 1.026433  6.257365E-6 
152 12.4753 1.009453  2.260902E-6 
153 -6.1381 1.002970  7.176153E-7 
154 -17.1838 1.011876  2.898876E-6 
155 -11.1449 0.994920 -1.252703E-6 
156 -8.4313 1.009120  2.271766E-6 
157 -19.7828 1.024769  6.232435E-6 
158 -17.5660 0.991649 -2.122655E-6 
159 -18.2157 1.019216  4.933528E-6 
160 7.4684 1.017465  4.528976E-6 
161 18.7817 1.010929  2.862488E-6 
162 11.8638 1.011439  3.026039E-6 
163 -19.8592 1.012339  3.296608E-6 
164 19.1256 1.010351  2.792744E-6 
165 -18.7126 1.015821  4.311060E-6 
166 -18.4068 1.001904  5.239900E-7 
167 -19.7828 1.047762  1.327166E-5 
168 -16.9544 0.999407 -1.664101E-7 
169 -5.9087 1.028282  8.013269E-6 
170 12.5899 0.995054 -1.414968E-6 
171 -17.7953 1.008983  2.594863E-6 
172 -18.5215 1.027139  7.915238E-6 
173 -18.9037 1.004528  1.333240E-6 
174 10.3732 1.028572  8.494220E-6 
175 -2.7364 1.008750  2.626155E-6 
176 6.7804 1.013372  4.051856E-6 
177 -5.6412 1.008834  2.702218E-6 
178 8.1182 1.016591  5.122997E-6 
179 6.9715 1.013118  4.088993E-6 
180 16.6031 1.001650  5.191229E-7 
181 5.5192 1.018439  5.856183E-6 
182 10.5260 1.013725  4.399659E-6 
183 13.6601 1.030927  1.000646E-5 
184 6.4365 0.986260 -4.487004E-6 
185 7.4684 1.013059  4.303929E-6 
186 -9.8454 1.001082  3.598357E-7 
187 6.0543 1.003694  1.240105E-6 
188 3.2642 1.032605  1.104561E-5 
189 10.0292 1.003945  1.348740E-6 
190 -12.5591 1.022990  7.931328E-6 
191 -6.9407 1.016757  5.833331E-6 
192 -9.1193 1.010020  3.519920E-6 
193 -9.1193 1.023875  8.462231E-6 
194 0.6270 0.997343 -9.501271E-7 
195 7.3537 0.989905 -3.642756E-6 
196 -9.2721 0.989820 -3.706064E-6 
197 -10.1894 1.018947  6.959507E-6 
198 -6.9407 1.015342  5.685350E-6 
199 18.9728 0.983895 -6.020758E-6 
200 9.3794 0.996717 -1.238183E-6 
201 -7.5522 0.995989 -1.525981E-6 
202 -19.2095 1.010174  3.904870E-6 
203 11.2140 1.028231  1.093009E-5 
204 -17.2220 1.013646  5.329249E-6 
205 6.2836 0.993854 -2.420971E-6 
206 5.7485 1.007064  2.806581E-6 
207 5.5192 1.006864  2.750801E-6 
208 8.7297 1.015622  6.314574E-6 
209 -7.9344 1.015605  6.361618E-6 
210 -15.0434 1.019801  8.141438E-6 
211 -8.6988 0.999896 -4.307121E-8 
212 -5.0679 1.021623  9.042180E-6 
213 -18.4450 0.995867 -1.743095E-6 
214 -6.7878 1.020810  8.850004E-6 
215 -9.6543 1.012720  5.455087E-6 
216 18.1701 1.014183  6.133609E-6 
217 -18.4068 1.008917  3.888280E-6 
218 11.3287 1.018621  8.187906E-6 
219 -5.9470 1.016110  7.142354E-6 
220 -9.8454 0.977457 -1.007715E-5 
221 9.9527 1.011104  5.004711E-6 
222 -4.9915 1.020408  9.273905E-6 
223 4.9841 1.038232  1.751617E-5 
224 -18.5215 1.001452  6.706379E-7 
225 -9.2721 1.006469  3.012309E-6 
226 -19.7445 1.017821  8.366187E-6 
227 14.1570 1.005884  2.784581E-6 
228 -6.2909 1.005439  2.594853E-6 
229 18.7817 0.998006 -9.589606E-7 
230 5.5574 1.010586  5.131671E-6 
231 5.8249 1.031858  1.556757E-5 
232 -8.9664 1.018010  8.870883E-6 
233 -6.6349 1.011723  5.820150E-6 
234 -5.2208 1.020200  1.010836E-5 
235 -18.5979 1.018526  9.343616E-6 
236 -7.3229 1.020756  1.055089E-5 
237 -4.4946 1.007269  3.724139E-6 
238 6.9333 1.007597  3.922425E-6 
239 7.6595 1.034979  1.820228E-5 
240 -6.7114 1.005188  2.720961E-6 
241 -18.4450 1.005224  2.761040E-6 
242 -18.7126 0.998315 -8.975621E-7 
243 -9.0810 1.017372  9.323810E-6 
244 -15.5021 1.003021  1.633777E-6 
245 7.6977 1.015779  8.599014E-6 
246 -10.7245 1.020672  1.135205E-5 
247 -5.5265 1.008918  4.934592E-6 
248 -8.1637 1.012777  7.123397E-6 
249 -18.8272 0.992754 -4.070803E-6 
250 -8.7753 1.017208  9.739847E-6 
251 7.2391 1.008881  5.064743E-6 
252 -17.6042 1.001510  8.673665E-7 
253 8.7679 0.988969 -6.385249E-6 
254 10.2585 1.012479  7.277597E-6 
255 6.5129 1.003670  2.156330E-6 
256 -5.9470 0.996349 -2.161068E-6 
257 -4.5710 1.007519  4.483176E-6 
258 -18.4833 1.006715  4.033413E-6 
259 13.0486 0.991068 -5.404443E-6 
260 9.0354 1.013165  8.024650E-6 
261 4.7165 0.995048 -3.040555E-6 
262 -7.5522 1.001487  9.194363E-7 
263 -15.9989 1.016109  1.003583E-5 
264 -15.8461 1.024307  1.525254E-5 
265 -10.3805 0.993636 -4.022274E-6 
266 10.8318 1.024361  1.550792E-5 
267 8.8061 1.013704  8.786647E-6 
268 -8.2784 0.982843 -1.107954E-5 
269 -7.1700 1.023868  1.552393E-5 
270 -19.7828 1.016680  1.092597E-5 
271 10.6789 1.004232  2.791875E-6 
272 -17.8717 1.007646  5.079923E-6 
273 9.8381 1.012994  8.693648E-6 
274 -6.9789 1.017032  1.147625E-5 
275 -17.7953 1.019491  1.322495E-5 
276 -4.1506 0.996534 -2.368416E-6 
277 -18.7508 1.028119  1.934793E-5 
278 -6.7114 1.012840  8.896146E-6 
279 -6.9789 1.018395  1.283395E-5 
280 -15.8461 1.020161  1.416356E-5 
281 -16.8780 1.007659  5.418188E-6 
282 -18.2539 0.997206 -1.989933E-6 
283 -7.8580 0.996226 -2.706269E-6 
284 -17.2602 1.011891  8.586308E-6 
285 -7.8580 0.999073 -6.738820E-7 
286 -18.2922 1.001021  7.473749E-7 
287 -10.5716 0.999479 -3.836315E-7 
288 -8.2402 1.008182  6.071155E-6 
289 -4.3799 1.017854  1.333651E-5 
290 3.7610 0.995822 -3.142242E-6 
291 -8.4313 1.007110  5.382900E-6 
292 9.6852 1.021983  1.675527E-5 
293 -8.2784 1.016299  1.250554E-5 
294 9.4177 0.993797 -4.791414E-6 
295 -7.9726 1.020165  1.567901E-5 
296 9.9910 1.023032  1.802758E-5 
297 -16.8780 1.021886  1.724374E-5 
298 -18.0246 1.026753  2.121802E-5 
299 -16.4194 1.026373  2.105446E-5 
300 -9.6543 0.999869 -1.052612E-7 
301 -19.1712 1.007597  6.144442E-6 
302 -11.2214 1.023904  1.946130E-5 
303 -10.7627 1.011571  9.481888E-6 
304 -6.3674 1.018955  1.563385E-5 
305 5.7103 1.026707  2.216989E-5 
306 -16.8016 1.014622  1.221651E-5 
307 17.6733 1.010638  8.945040E-6 
308 -16.4576 1.003155  2.669882E-6 
309 -16.8398 1.018433  1.569984E-5 
310 -15.6932 1.013164  1.128429E-5 
311 -18.5215 1.014392  1.241511E-5 
312 17.1382 1.005611  4.871341E-6 
313 -3.5391 1.007090  6.194161E-6 
314 -6.5967 1.008998  7.910912E-6 
315 9.5323 1.013642  1.206959E-5 
316 -5.7559 0.998753 -1.110510E-6 
317 13.0868 1.020649  1.850029E-5 
318 -18.7508 0.997329 -2.408161E-6 
319 7.6977 1.020574  1.866496E-5 
320 12.5899 1.014682  1.340251E-5 
321 -5.9852 1.027923  2.564823E-5 
322 -19.8210 1.001233  1.139178E-6 
323 7.0098 1.002171  2.018989E-6 
324 -7.7051 1.023615  2.209679E-5 
325 -7.4758 1.004457  4.196484E-6 
326 12.7428 1.014038  1.329828E-5 
327 -8.6606 1.008410  8.015686E-6 
328 16.9853 0.993746 -5.997424E-6 
329 7.0480 1.002723  2.627439E-6 
330 7.6595 1.022560  2.189838E-5 
331 -18.2157 1.012230  1.194286E-5 
332 10.6407 1.029132  2.862188E-5 
333 -5.9470 1.038800  3.835087E-5 
334 7.0480 1.011185  1.112216E-5 
335 8.1564 1.016316  1.632154E-5 
336 -17.9100 1.019750  1.987534E-5 
337 -19.1330 1.003722  3.768306E-6 
338 -8.9282 1.022507  2.292150E-5 
339 -18.1775 1.024115  2.470548E-5 
340 -15.0434 1.020735  2.136882E-5 
341 -3.5391 1.002125  2.202706E-6 
342 7.7742 1.009608  1.001921E-5 
343 10.1056 0.981326 -1.958852E-5 
344 -17.7189 1.016746  1.766928E-5 
345 -10.3805 1.006098  6.471907E-6 
346 12.9721 1.022084  2.357658E-5 
347 5.5956 1.021220  2.278591E-5 
348 8.0035 1.004372  4.722193E-6 
349 18.6670 1.006581  7.149691E-6 
350 -9.2339 1.029147  3.184781E-5 
351 14.1952 1.018570  2.040819E-5 
352 -5.5648 1.017971  1.986395E-5 
353 -15.2345 1.003346  3.720163E-6 
354 -7.0936 1.029092  3.252811E-5 
355 -8.0109 1.007257  8.160540E-6 
356 15.7622 0.998432 -1.772799E-6 
357 1.0856 1.032392  3.684290E-5 
358 7.2391 1.012376  1.415736E-5 
359 -0.7872 1.032138  3.697132E-5 
360 -5.5648 0.994469 -6.399322E-6 
361 -18.5215 1.011858  1.379591E-5 
362 -15.0816 1.009074  1.061710E-5 
363 -8.4313 1.027050  3.182720E-5 
364 -19.5534 1.020829  2.464538E-5 
365 5.3663 0.992199 -9.282611E-6 
366 6.4365 1.024516  2.933400E-5 
367 -19.4770 1.018387  2.212372E-5 
368 10.2967 1.037642  4.554321E-5 
369 7.9271 1.016524  2.010352E-5 
370 8.5768 1.017170  2.100548E-5 
371 -19.9739 0.998986 -1.247658E-6 
372 5.9396 0.985956 -1.737173E-5 
373 -7.9726 1.019187  2.386386E-5 
374 -7.0171 0.999531 -5.860181E-7 
375 8.7297 0.997370 -3.307332E-6 
376 2.3851 1.014929  1.887438E-5 
377 -14.9670 0.994273 -7.280614E-6 
378 -8.3931 1.016930  2.163925E-5 
379 -17.5660 1.009367  1.203716E-5 
380 -5.6412 1.006218  8.034402E-6 
381 -18.1393 1.006446  8.373785E-6 
382 8.1182 1.002729  3.564601E-6 
383 5.4809 1.010818  1.420572E-5 
384 -5.9852 1.003470  4.580844E-6 
385 9.6852 1.014324  1.901202E-5 
386 -6.7496 1.001005  1.341611E-6 
387 -5.7176 1.022888  3.070373E-5 
388 -6.3674 1.001864  2.513321E-6 
389 -19.8210 1.027646  3.748290E-5 
390 17.0235 1.013604  1.854172E-5 
391 -5.5648 1.010027  1.373877E-5 
392 -7.2082 0.990944 -1.247377E-5 
393 6.7804 1.035716  4.945634E-5 
394 -6.1763 1.007579  1.054989E-5 
395 -3.8448 1.014263  1.995823E-5 
396 -9.0046 1.006678  9.393798E-6 
397 -15.1963 1.012567  1.776909E-5 
398 -15.1963 1.023689  3.367148E-5 
399 -18.7508 1.006536  9.338445E-6 
400 9.2648 1.032053  4.603444E-5 
401 -18.6744 1.014214  2.051966E-5 
402 5.4809 1.029826  4.328175E-5 
403 -5.6412 1.023705  3.457715E-5 
404 7.3155 1.011921  1.747846E-5 
405 -6.9407 1.002360  3.478202E-6 
406 7.0098 1.010889  1.612919E-5 
407 -5.9852 1.008503  1.265993E-5 
408 12.7046 1.038411  5.747988E-5 
409 -4.2270 1.000823  1.238359E-6 
410 -11.2978 1.024960  3.773253E-5 
411 -9.3104 1.022406  3.404336E-5 
412 -6.0616 1.026098  3.985392E-5 
413 -18.9037 1.014656  2.249378E-5 
414 4.5637 1.022663  3.495871E-5 
415 6.2071 1.000599  9.293587E-7 
416 6.2836 0.978897 -3.288102E-5 
417 -15.0434 1.016400  2.568141E-5 
418 10.1438 1.012951  2.038195E-5 
419 4.9459 0.994371 -8.903040E-6 
420 -17.2602 1.009576  1.522211E-5 
421 -9.4632 1.017004  2.716329E-5 
422 -18.1011 1.001998  3.208371E-6 
423 9.1119 0.998045 -3.153568E-6 
424 -6.8643 0.993092 -1.120032E-5 
425 8.4239 1.009888  1.611028E-5 
426 1.0092 0.989789 -1.671977E-5 
427 -5.9087 1.017033  2.802627E-5 
428 -5.4119 1.031217  5.161658E-5 
429 -15.3492 0.995326 -7.766943E-6 
430 -17.2220 1.016741  2.795217E-5 
431 -18.7126 1.002349  3.941830E-6 
432 -8.2402 1.013270  2.237343E-5 
433 -7.6287 1.001838  3.114011E-6 
434 4.9841 1.021405  3.644047E-5 
435 10.2203 1.011906  2.036777E-5 
436 13.1633 1.018928  3.253698E-5 
437 -17.2602 1.004921  8.499495E-6 
438 -10.6863 1.004469  7.755468E-6 
439 -5.5648 1.012846  2.240273E-5 
440 -5.5648 1.000628  1.099634E-6 
441 6.4365 1.006866  1.208835E-5 
442 -8.3548 1.006884  1.217807E-5 
443 -2.3925 1.026419  4.696005E-5 
444 8.8061 1.007550  1.348449E-5 
445 -17.9864 1.003844  6.898141E-6 
446 7.2773 1.014139  2.549192E-5 
447 6.1307 1.012105  2.192753E-5 
448 -19.4770 1.004421  8.046379E-6 
449 4.6401 0.999272 -1.331447E-6 
450 16.7178 0.994866 -9.432092E-6 
451 5.2898 1.011477  2.118581E-5 
452 2.0411 1.015290  2.835641E-5 
453 8.4239 1.010969  2.043735E-5 
454 7.7742 1.004731  8.855972E-6 
455 7.6977 1.042436  7.980621E-5 
456 3.7992 1.017008  3.213436E-5 
457 -16.8398 0.997755 -4.261662E-6 
458 12.2460 1.015999  3.050956E-5 
459 7.1244 1.005628  1.078219E-5 
460 -9.8072 1.009374  1.804242E-5 
461 10.5260 1.003680  7.115376E-6 
462 9.1119 1.014126  2.743827E-5 
463 -19.8592 1.014331  2.796359E-5 
464 10.6025 1.014491  2.840711E-5 
465 10.8318 1.001162  2.288985E-6 
466 6.2454 1.008095  1.601362E-5 
467 8.5386 1.011772  2.339375E-5 
468 17.5586 1.002589  5.168558E-6 
469 9.9910 1.020196  4.049969E-5 
470 -8.2784 1.009311  1.875688E-5 
471 -7.1318 1.006384  1.291759E-5 
472 -7.3993 0.988624 -2.312358E-5 
473 10.1056 1.017592  3.592124E-5 
474 -4.3035 1.018301  3.753688E-5 
475 -7.8962 1.003678  7.578098E-6 
476 -14.6612 1.023404  4.843666E-5 
477 -19.0948 1.012081  2.511482E-5 
478 -17.8717 1.022609  4.721129E-5 
479 -19.5152 1.032412  6.798251E-5 
480 9.7616 0.991978 -1.689992E-5 
481 -17.4513 0.999938 -1.316644E-7 
482 -14.8523 0.992076 -1.684224E-5 
483 -10.2276 1.005288  1.129007E-5 
484 -4.2653 1.006796  1.457404E-5 
485 -19.8592 1.021787  4.692585E-5 
486 4.7165 1.004063  8.789496E-6 
487 7.0098 1.010890  2.366231E-5 
488 -16.6487 1.020185  4.405335E-5 
489 10.7554 1.017615  3.861179E-5 
490 17.6733 1.021580  4.751003E-5 
491 -12.7884 1.006641  1.468416E-5 
492 -18.4450 1.012403  2.754488E-5 
493 -7.3229 1.032610  7.273782E-5 
494 -9.8454 1.012252  2.744709E-5 
495 -15.1199 1.009790  2.202640E-5 
496 -17.9482 1.012301  2.779639E-5 
497 -17.3367 1.007823  1.775414E-5 
498 8.4239 1.029174  6.649619E-5 
499 -19.1330 1.019846  4.543008E-5 
500 -3.8448 1.022079  5.075773E-5 
501 -3.9213 1.010542  2.434042E-5 
502 -8.9664 0.986432 -3.145998E-5 
503 -17.4513 1.026493  6.169242E-5 
504 -18.9037 1.009847  2.302919E-5 
505 -15.5785 1.014750  3.464139E-5 
506 -10.1512 1.022003  5.189669E-5 
507 18.9728 1.019863  4.704887E-5 
508 -6.5585 1.004022  9.565875E-6 
509 -15.4638 1.001739  4.153664E-6 
510 7.6977 0.998679 -3.169091E-6 
511 7.2391 1.012309  2.965346E-5 
512 -12.1005 1.022244  5.381233E-5 
513 8.9590 1.012816  3.113459E-5 
514 -6.5203 1.004819  1.175712E-5 
515 -11.9858 1.001022  2.503651E-6 
516 -16.6869 1.004731  1.163888E-5 
517 8.6915 1.023410  5.783115E-5 
518 -16.2665 1.016804  4.168443E-5 
519 8.2710 1.001426  3.551641E-6 
520 -7.7433 1.033981  8.499827E-5 
521 18.8199 1.007291  1.831311E-5 
522 16.3355 1.003723  9.390576E-6 
523 -6.2909 1.004922  1.246566E-5 
524 -17.1455 0.997516 -6.315809E-6 
525 -9.2339 1.017201  4.392354E-5 
526 13.5072 1.016691  4.279865E-5 
527 10.9465 0.990408 -2.469527E-5 
528 -15.3874 1.015221  3.934981E-5 
529 10.6025 1.018570  4.820535E-5 
530 16.7942 1.015426  4.020795E-5 
531 -8.2020 1.023386  6.120444E-5 
532 -6.5967 1.018900  4.966659E-5 
533 -17.1838 1.014721  3.884149E-5 
534 -10.0365 1.027618  7.316758E-5 
535 -5.5265 1.015284  4.065651E-5 
536 -18.9037 0.998923 -2.876811E-6 
537 -17.3749 1.005932  1.590727E-5 
538 -5.1061 1.021829  5.877386E-5 
539 6.1307 1.017395  4.702466E-5 
540 -16.8398 1.004466  1.212267E-5 
541 -10.6481 1.000095  2.601966E-7 
542 -16.7251 1.025478  6.971069E-5 
543 -7.3611 1.019618  5.389274E-5 
544 7.0098 1.007336  2.023375E-5 
545 -7.2465 1.013514  3.742206E-5 
546 19.0110 1.014342  3.987412E-5 
547 6.8187 1.031793  8.874185E-5 
548 -19.0948 1.015092  4.229396E-5 
549 -19.9356 1.006384  1.796232E-5 
550 -17.2984 0.994046 -1.681823E-5 
551 -7.2847 1.011511  3.264434E-5 
552 6.5893 0.999876 -3.516706E-7 
553 7.0098 0.986705 -3.800097E-5 
554 15.4183 1.010600  3.041642E-5 
555 -18.8272 1.025693  7.401899E-5 
 2.349272  90.00  10.00 -0.00 -0.01
  0 -0.2521 0.806740 -1.088145E-5 
  1 -1.2458 0.798405 -1.135840E-5 
  2 -8.8135 1.159100  8.972430E-6 
  3 0.2830 1.087440  4.937042E-6 
  4 0.2065 1.060038  3.394725E-6 
  5 0.8945 1.068096  3.856925E-6 
  6 0.6270 1.064227  3.644847E-6 
  7 0.0154 1.059615  3.390563E-6 
  8 -0.0992 1.058149  3.315353E-6 
  9 -0.7108 1.061748  3.530044E-6 
 10 0.3212 1.044304  2.540275E-6 
 11 -0.6343 1.039775  2.287913E-6 
 12 -0.4050 1.047842  2.761408E-6 
 13 -0.7490 1.035984  2.084641E-6 
 14 -0.5961 1.021331  1.240654E-6 
 15 -19.8974 1.016631  9.713129E-7 
 16 10.3732 1.029771  1.746376E-6 
 17 -2.1249 1.024372  1.436332E-6 
 18 -3.0804 1.015838  9.378899E-7 
 19 -1.1694 1.010541  6.274255E-7 
 20 18.2083 1.012641  7.563946E-7 
 21 -4.2270 1.011738  7.062444E-7 
 22 9.8381 0.990090 -5.996915E-7 
 23 -18.1775 1.013603  8.281093E-7 
 24 18.7817 1.016028  9.817689E-7 
 25 -3.1187 1.010504  6.474868E-7 
 26 18.9728 0.994271 -3.554775E-7 
 27 8.6915 1.014511  9.064875E-7 
 28 -8.2020 0.990107 -6.223094E-7 
 29 -9.2721 1.010351  6.558008E-7 
 30 9.4941 1.013553  8.650009E-7 
 31 18.4377 1.013717  8.820164E-7 
 32 17.8644 1.004823  3.125085E-7 
 33 -9.0046 1.009590  6.262924E-7 
 34 -9.0810 0.982803 -1.132170E-6 
 35 -11.4507 0.996061 -2.614361E-7 
 36 10.4114 1.000515  3.448887E-8 
 37 8.2710 1.005535  3.736436E-7 
 38 11.5580 1.002808  1.912315E-7 
 39 -10.5716 0.998163 -1.261919E-7 
 40 18.9345 1.012858  8.912056E-7 
 41 -18.0246 0.986519 -9.428877E-7 
 42 8.7679 1.001930  1.362235E-7 
 43 17.9026 1.000311  2.216448E-8 
 44 9.1501 1.005313  3.821735E-7 
 45 17.5586 1.028581  2.075670E-6 
 46 -19.7063 1.016041  1.176287E-6 
 47 -0.0610 0.990390 -7.116887E-7 
 48 -9.4250 1.015495  1.158952E-6 
 49 18.3230 1.024472  1.848831E-6 
 50 8.9590 0.983281 -1.275992E-6 
 51 7.3920 1.019309  1.488806E-6 
 52 8.4239 1.036051  2.808586E-6 
 53 -8.6224 1.018842  1.483304E-6 
 54 -8.0491 1.018954  1.507858E-6 
 55 -6.5967 1.005022  4.038083E-7 
 56 9.3030 1.001984  1.612503E-7 
 57 8.4239 0.992457 -6.196043E-7 
 58 -19.4770 0.999358 -5.332366E-8 
 59 -7.8198 1.016303  1.368514E-6 
 60 11.2905 0.986733 -1.125920E-6 
 61 -18.5215 1.004691  4.025151E-7 
 62 -7.6669 1.009588  8.319086E-7 
 63 9.6470 0.973375 -2.336043E-6 
 64 -7.1318 0.995470 -4.019181E-7 
 65 -7.0171 1.014822  1.329968E-6 
 66 -19.8210 1.029321  2.660779E-6 
 67 -19.9739 1.000878  8.059760E-8 
 68 8.9208 1.022947  2.130176E-6 
 69 18.3612 1.027323  2.565583E-6 
 70 -8.3548 1.009763  9.273001E-7 
 71 -12.2533 1.008035  7.719707E-7 
 72 -9.9601 1.003169  3.079865E-7 
 73 8.3093 1.003025  2.973707E-7 
 74 1.4296 0.999650 -3.481912E-8 
 75 -8.0109 1.031793  3.199100E-6 
 76 -1.0165 1.007172  7.300684E-7 
 77 14.8067 0.995530 -4.603489E-7 
 78 -18.7126 1.020978  2.185897E-6 
 79 -19.5534 1.002085  2.198171E-7 
 80 17.8261 1.013389  1.428157E-6 
 81 8.8061 1.027884  3.009303E-6 
 82 -7.2847 0.997473 -2.759404E-7 
 83 9.9145 1.017541  1.937937E-6 
 84 -8.0873 1.012692  1.418829E-6 
 85 18.1701 1.011080  1.253202E-6 
 86 6.8187 1.000897  1.026069E-7 
 87 18.0172 1.012113  1.402621E-6 
 88 10.1056 1.013347  1.563812E-6 
 89 17.7497 0.998016 -2.352598E-7 
 90 -19.0183 1.003308  3.968576E-7 
 91 8.9972 1.009220  1.119039E-6 
 92 17.8644 0.999469 -6.518199E-8 
 93 -19.5534 1.026534  3.296867E-6 
 94 -10.0748 1.008201  1.030948E-6 
 95 -8.5077 0.996105 -4.954703E-7 
 96 -7.5140 0.993943 -7.794638E-7 
 97 -13.5910 1.008079  1.051985E-6 
 98 19.0110 0.996336 -4.827406E-7 
 99 19.0874 1.006716  8.951800E-7 
100 11.1376 1.013118  1.769000E-6 
101 -7.2847 1.001704  2.324168E-7 
102 -9.3486 0.997720 -3.147187E-7 
103 -19.3623 1.005089  7.106822E-7 
104 11.1376 1.027016  3.816572E-6 
105 -9.3868 0.987109 -1.842356E-6 
106 -7.6287 1.011273  1.629850E-6 
107 -1.3987 0.975714 -3.551997E-6 
108 -19.1330 1.010491  1.552196E-6 
109 8.6532 1.007622  1.140765E-6 
110 -19.2859 0.985560 -2.186122E-6 
111 -18.5979 1.017879  2.737952E-6 
112 8.1946 1.003539  5.482519E-7 
113 19.0110 1.021151  3.313839E-6 
114 8.6915 0.999078 -1.460585E-7 
115 -17.9100 1.028528  4.572459E-6 
116 -12.3298 1.007553  1.224458E-6 
117 2.1940 0.994890 -8.377708E-7 
118 8.5004 1.008942  1.482692E-6 
119 -17.0309 1.006317  1.059223E-6 
120 19.0874 0.996441 -6.036177E-7 
121 9.0354 1.006646  1.139820E-6 
122 18.0172 1.005354  9.285891E-7 
123 -9.8454 1.014831  2.600902E-6 
124 8.0035 1.019037  3.375843E-6 
125 8.2328 0.996644 -6.017758E-7 
126 -19.7828 1.010709  1.941618E-6 
127 -9.5779 0.986701 -2.437948E-6 
128 7.4684 1.006999  1.297261E-6 
129 18.8581 1.009977  1.869640E-6 
130 9.9910 1.001532  2.902754E-7 
131 -10.0748 1.034431  6.594697E-6 
132 18.4377 1.011790  2.282910E-6 
133 -8.2020 1.026976  5.280450E-6 
134 8.2328 1.003347  6.622298E-7 
135 18.0937 1.013353  2.670913E-6 
136 18.4377 0.998074 -3.893710E-7 
137 18.8963 1.003636  7.431616E-7 
138 -19.5152 1.021723  4.487227E-6 
139 19.0110 0.989032 -2.289872E-6 
140 -19.4388 1.028808  6.079124E-6 
141 10.8700 0.999974 -5.557268E-9 
142 -19.9356 1.022007  4.743236E-6 
143 18.5906 1.009134  1.989640E-6 
144 7.2391 1.015973  3.516102E-6 
145 8.8061 0.992698 -1.624304E-6 
146 18.5523 1.004090  9.193966E-7 
147 9.3794 0.984656 -3.485130E-6 
148 -8.9282 0.997025 -6.827976E-7 
149 9.1883 1.010793  2.502833E-6 
150 -10.1130 1.010336  2.421610E-6 
151 -2.8893 1.016064  3.802604E-6 
152 -11.2978 1.009563  2.287019E-6 
153 9.1883 0.998499 -3.626370E-7 
154 7.2009 1.011652  2.844138E-6 
155 18.2848 1.001848  4.557483E-7 
156 18.0555 1.002588  6.447409E-7 
157 -10.1512 1.016225  4.082687E-6 
158 -19.8974 1.007242  1.840676E-6 
159 -0.5579 0.998531 -3.770998E-7 
160 -17.5278 1.008650  2.243094E-6 
161 4.1432 0.997969 -5.319624E-7 
162 18.3230 1.013346  3.530442E-6 
163 17.5204 1.028760  7.683462E-6 
164 13.7748 1.023267  6.277679E-6 
165 6.1689 1.002741  7.468885E-7 
166 18.3230 1.022258  6.124726E-6 
167 9.8763 1.015948  4.431377E-6 
168 2.0411 1.018683  5.242255E-6 
169 7.1244 1.015192  4.304248E-6 
170 -19.0566 1.002582  7.386361E-7 
171 -7.5522 0.989790 -2.949341E-6 
172 -8.9282 1.016123  4.702375E-6 
173 -19.9739 1.001481  4.361130E-7 
174 8.1182 1.005403  1.606383E-6 
175 2.8055 0.981058 -5.685182E-6 
176 17.9790 1.008699  2.635881E-6 
177 -18.2157 0.993985 -1.839759E-6 
178 -9.1957 1.013514  4.173080E-6 
179 8.1564 1.026881  8.378894E-6 
180 -18.8272 1.034818  1.095523E-5 
181 -19.7445 0.989061 -3.474151E-6 
182 -2.2014 0.995288 -1.510526E-6 
183 -9.0810 1.003899  1.261383E-6 
184 17.5204 0.992551 -2.432614E-6 
185 9.4941 1.008035  2.648243E-6 
186 -18.7508 0.991182 -2.933151E-6 
187 17.9790 0.997867 -7.161111E-7 
188 -19.4006 1.012143  4.113543E-6 
189 -10.1512 0.994474 -1.889341E-6 
190 -8.6988 1.017546  6.053132E-6 
191 8.1182 0.993085 -2.407200E-6 
192 18.8963 1.014253  5.006825E-6 
193 7.0098 1.017133  6.072530E-6 
194 -11.6418 1.001478  5.286834E-7 
195 18.6670 1.003431  1.238010E-6 
196 -9.5779 0.998352 -6.000034E-7 
197 -0.4432 1.001030  3.784895E-7 
198 -8.1637 0.988013 -4.441957E-6 
199 -19.8592 1.007760  2.900917E-6 
200 -8.5460 0.991023 -3.385810E-6 
201 9.9910 0.994903 -1.939199E-6 
202 9.0737 0.987183 -4.919277E-6 
203 15.8005 1.020952  8.111859E-6 
204 -0.1375 1.017686  6.907023E-6 
205 18.8581 0.992031 -3.139173E-6 
206 19.0110 0.998583 -5.629542E-7 
207 -9.9601 1.002656  1.064472E-6 
208 -9.0428 1.029339  1.185892E-5 
209 17.4822 1.018145  7.397397E-6 
210 11.2905 1.015039  6.183600E-6 
211 6.0160 0.996708 -1.365004E-6 
212 -7.4376 1.017947  7.505250E-6 
213 -6.5203 1.003306  1.394133E-6 
214 8.4239 1.008005  3.404298E-6 
215 -19.2477 0.999101 -3.854359E-7 
216 9.9527 1.016987  7.346040E-6 
217 -10.5716 1.011475  5.003977E-6 
218 8.6915 1.025082  1.102849E-5 
219 17.8644 1.018127  8.036628E-6 
220 -19.4006 1.001553  6.941394E-7 
221 -1.2458 1.003999  1.802210E-6 
222 -9.0810 1.011558  5.252337E-6 
223 -18.9037 1.012107  5.546948E-6 
224 -19.9739 0.995454 -2.100013E-6 
225 -18.7508 0.976855 -1.077792E-5 
226 18.0555 1.003110  1.460027E-6 
227 18.7434 0.996139 -1.827243E-6 
228 0.4741 1.002022  9.647077E-7 
229 -10.6099 0.987059 -6.223540E-6 
230 18.0937 1.010207  4.948007E-6 
231 10.7171 1.011594  5.665242E-6 
232 -8.9282 1.014243  7.015306E-6 
233 12.4371 1.039016  1.937014E-5 
234 16.8706 1.009926  4.967187E-6 
235 9.5323 1.004743  2.392331E-6 
236 -10.7245 1.004479  2.277072E-6 
237 -2.0485 0.997120 -1.475634E-6 
238 17.5586 1.010748  5.549436E-6 
239 -8.8517 1.016177  8.418385E-6 
240 17.7115 1.005382  2.822379E-6 
241 7.1244 0.993320 -3.530279E-6 
242 7.8124 0.977430 -1.202083E-5 
243 7.3155 1.019182  1.029475E-5 
244 18.2083 1.006497  3.513615E-6 
245 -18.9801 1.002332  1.270681E-6 
246 -8.3931 1.010820  5.941590E-6 
247 8.6150 1.031680  1.752971E-5 
248 -17.7953 0.996807 -1.780450E-6 
249 -18.4450 1.004378  2.459565E-6 
250 9.2265 1.017550  9.933414E-6 
251 18.0172 1.002245  1.280550E-6 
252 8.9590 1.020268  1.164514E-5 
253 -1.0547 0.997678 -1.343935E-6 
254 -19.8974 1.010042  5.856532E-6 
255 12.0166 1.010716  6.295717E-6 
256 10.2967 0.983187 -9.951206E-6 
257 10.4114 1.000655  3.906225E-7 
258 9.2265 0.986564 -8.070767E-6 
259 8.6150 0.991849 -4.932031E-6 
260 -9.6543 1.000949  5.787399E-7 
261 9.2648 0.995579 -2.714753E-6 
262 7.5066 1.011203  6.928660E-6 
263 11.2140 0.997815 -1.361296E-6 
264 18.6288 1.051024  3.201737E-5 
265 -8.2784 0.998741 -7.959793E-7 
266 -15.5403 1.007289  4.640198E-6 
267 18.9728 1.002634  1.688634E-6 
268 -3.7302 0.994365 -3.638715E-6 
269 12.8193 0.999511 -3.177957E-7 
270 -8.2784 0.998021 -1.296191E-6 
271 -8.4313 0.997988 -1.327356E-6 
272 -19.2095 0.999749 -1.665040E-7 
273 -11.7182 1.026916  1.800858E-5 
274 10.3349 1.012107  8.157813E-6 
275 -8.6224 1.017626  1.195958E-5 
276 18.8581 1.018278  1.248913E-5 
277 17.7497 1.023689  1.629962E-5 
278 -19.3623 1.015707  1.088260E-5 
279 16.9853 1.002300  1.604631E-6 
280 -9.1957 1.004647  3.264967E-6 
281 9.7234 0.987710 -8.693766E-6 
282 18.3612 0.995675 -3.080552E-6 
283 9.1119 1.002317  1.661460E-6 
284 -18.9419 1.029526  2.131996E-5 
285 -11.3360 1.006088  4.426060E-6 
286 -12.1769 1.030210  2.211360E-5 
287 18.6670 0.982517 -1.288404E-5 
288 -10.6863 1.016089  1.193761E-5 
289 -19.9739 0.992122 -5.885053E-6 
290 19.1256 1.004231  3.181991E-6 
291 18.9728 0.994929 -3.839591E-6 
292 9.6088 1.011485  8.753566E-6 
293 -4.2270 0.995932 -3.121615E-6 
294 18.4377 1.007780  6.009641E-6 
295 11.5580 1.006183  4.807245E-6 
296 17.0617 1.012808  1.002528E-5 
297 18.7817 0.997855 -1.690285E-6 
298 17.1382 1.010542  8.361119E-6 
299 8.9208 1.022291  1.779533E-5 
300 12.4371 1.017099  1.374011E-5 
301 9.9527 1.015277  1.235654E-5 
302 10.8700 1.002424  1.973614E-6 
303 10.3349 1.029429  2.411533E-5 
304 -10.7245 1.006158  5.079006E-6 
305 -18.1011 1.004421  3.669796E-6 
306 5.8249 1.008952  7.478903E-6 
307 9.5323 1.019318  1.624382E-5 
308 -1.0930 1.016530  1.398956E-5 
309 7.9653 0.999425 -4.894017E-7 
310 7.9271 1.032154  2.756131E-5 
311 -3.1569 0.990913 -7.838732E-6 
312 10.7936 0.992917 -6.149368E-6 
313 12.0166 1.029638  2.589326E-5 
314 -9.6543 1.003278  2.881888E-6 
315 -19.6681 0.999522 -4.226738E-7 
316 8.3857 0.983379 -1.479796E-5 
317 17.9026 1.008522  7.635215E-6 
318 8.9972 0.996948 -2.751969E-6 
319 17.5586 1.014360  1.302739E-5 
320 -8.7753 1.024789  2.262899E-5 
321 8.1946 0.998733 -1.163875E-6 
322 14.2716 1.008532  7.886080E-6 
323 9.0354 1.013388  1.245030E-5 
324 18.4377 0.991946 -7.536539E-6 
325 -18.4450 1.024055  2.264754E-5 
326 18.9345 1.011044  1.046196E-5 
327 9.6088 1.014804  1.410967E-5 
328 10.1821 0.998550 -1.390747E-6 
329 -9.3104 1.024766  2.389424E-5 
330 -19.5917 1.015908  1.544165E-5 
331 10.8318 0.993742 -6.110991E-6 
332 -4.5328 1.027939  2.744908E-5 
333 -19.2859 1.011535  1.140161E-5 
334 -19.9356 1.013209  1.313503E-5 
335 -9.9219 0.982862 -1.714419E-5 
336 9.0354 1.021415  2.155144E-5 
337 8.6915 0.993604 -6.474743E-6 
338 -19.2477 1.004537  4.621069E-6 
339 -18.9801 1.009834  1.007453E-5 
340 17.9790 0.993688 -6.504554E-6 
341 18.6670 1.009483  9.830679E-6 
342 18.2848 1.008614  8.982995E-6 
343 15.9916 1.003211  3.368299E-6 
344 -9.5397 1.024429  2.577635E-5 
345 -9.3868 1.002236  2.373044E-6 
346 -3.0040 1.015957  1.703520E-5 
347 -9.0810 1.022348  2.399746E-5 
348 9.9910 0.991684 -8.982206E-6 
349 9.4559 1.005484  5.957992E-6 
350 8.4621 0.999536 -5.075418E-7 
351 9.0737 1.017998  1.978001E-5 
352 -9.3486 1.011405  1.260627E-5 
353 -19.3241 0.998080 -2.135000E-6 
354 18.7052 1.000415  4.642246E-7 
355 -4.4564 0.993956 -6.796108E-6 
356 -8.2402 0.995085 -5.558752E-6 
357 -8.5077 1.030503  3.469472E-5 
358 -9.7690 0.993170 -7.812863E-6 
359 -8.2020 1.008550  9.835818E-6 
360 9.5705 1.017347  2.006935E-5 
361 -19.3241 1.013925  1.620153E-5 
362 -9.0428 1.006421  7.513169E-6 
363 6.9333 1.008008  9.422661E-6 
364 12.9339 1.011994  1.419228E-5 
365 -2.9658 0.997332 -3.174290E-6 
366 17.8261 0.997610 -2.859461E-6 
367 -8.7371 1.008145  9.799916E-6 
368 -11.1449 1.013010  1.574059E-5 
369 -9.0046 0.989872 -1.232259E-5 
370 -2.7364 1.008491  1.038715E-5 
371 -9.0428 0.984568 -1.898400E-5 
372 -9.0046 0.994681 -6.579088E-6 
373 -18.4833 1.024027  2.988316E-5 
374 -13.8586 1.000971  1.214394E-6 
375 -10.5334 1.008085  1.016633E-5 
376 10.7936 0.993747 -7.905282E-6 
377 -7.6287 0.994818 -6.587684E-6 
378 -18.6361 1.013515  1.727442E-5 
379 13.9277 1.012411  1.594901E-5 
380 10.3732 0.985962 -1.813803E-5 
381 18.0555 1.037715  4.899388E-5 
382 9.8763 0.981244 -2.449643E-5 
383 9.3030 1.007993  1.049577E-5 
384 -10.1130 0.993161 -9.029108E-6 
385 10.0292 1.006618  8.783425E-6 
386 -9.8454 1.036991  4.935867E-5 
387 19.0874 1.024092  3.231900E-5 
388 -10.6863 0.993053 -9.368537E-6 
389 18.8199 1.016864  2.286357E-5 
390 -0.2903 0.996990 -4.102035E-6 
391 0.6652 0.997419 -3.535843E-6 
392 -19.6299 1.006753  9.302392E-6 
393 -19.2859 1.018971  2.626936E-5 
394 11.8638 0.997323 -3.726452E-6 
395 8.6532 1.006032  8.441294E-6 
396 10.2203 0.989706 -1.447990E-5 
397 -7.7815 1.017309  2.447473E-5 
398 -10.0748 1.024723  3.514050E-5 
399 -18.7508 1.015876  2.268388E-5 
400 -19.0183 1.022181  3.185584E-5 
401 -8.8517 1.004753  6.861353E-6 
402 18.5523 1.002417  3.507220E-6 
403 -19.8974 1.011713  1.708545E-5 
404 8.9590 1.011851  1.737558E-5 
405 -9.5015 0.990660 -1.376411E-5 
406 8.5386 1.000708  1.048602E-6 
407 18.4377 1.015569  2.317998E-5 
408 -8.5077 1.010394  1.555420E-5 
409 -18.6744 1.008157  1.226833E-5 
410 -9.8072 1.010898  1.647464E-5 
411 9.8763 1.003926  5.965535E-6 
412 -18.6361 1.008747  1.335700E-5 
413 -19.6299 1.002254  3.459153E-6 
414 9.3412 1.021935  3.383661E-5 
415 9.9527 1.021797  3.379326E-5 
416 -11.2214 0.989449 -1.644053E-5 
417 -9.6926 0.994221 -9.049558E-6 
418 9.5323 1.007038  1.107703E-5 
419 -19.9356 1.012209  1.931014E-5 
420 8.6150 1.019902  3.163553E-5 
421 -19.1330 1.010756  1.718214E-5 
422 8.3857 1.017450  2.801344E-5 
423 -9.1575 0.987299 -2.049040E-5 
424 -1.5898 1.002882  4.672629E-6 
425 10.9082 1.018091  2.947640E-5 
426 -19.2477 1.015857  2.596433E-5 
427 7.6595 1.012083  1.988109E-5 
428 18.7817 1.004173  6.899458E-6 
429 -0.5961 0.985518 -2.406255E-5 
430 -0.2521 1.029706  4.960152E-5 
431 -10.1512 1.002860  4.799060E-6 
432 9.9527 1.007215  1.216492E-5 
433 8.5004 1.009036  1.530885E-5 
434 8.4239 1.006678  1.136841E-5 
435 -6.4056 0.991917 -1.382730E-5 
436 6.5893 0.995670 -7.443348E-6 
437 2.1175 0.985175 -2.560657E-5 
438 -9.9219 1.004960  8.608429E-6 
439 18.5141 1.006871  1.198253E-5 
440 7.3537 1.012719  2.228818E-5 
441 -9.6161 1.014764  2.599489E-5 
442 -11.1832 1.026723  4.727529E-5 
443 -8.2784 1.023505  4.178016E-5 
444 8.4239 1.006380  1.139484E-5 
445 -18.9419 1.019834  3.559137E-5 
446 17.5204 1.014747  2.658909E-5 
447 8.0799 1.016045  2.906565E-5 
448 14.6156 1.011258  2.048949E-5 
449 -19.9356 0.998617 -2.529432E-6 
450 8.2710 1.011431  2.100095E-5 
451 9.7234 1.026628  4.915213E-5 
452 19.1256 1.004379  8.121340E-6 
453 7.6977 0.991207 -1.638300E-5 
454 -9.6543 0.991064 -1.672718E-5 
455 10.2203 1.022300  4.193881E-5 
456 -7.7433 1.006075  1.147711E-5 
457 -8.5077 0.990372 -1.827627E-5 
458 10.2585 1.008134  1.551066E-5 
459 -19.6299 0.998816 -2.267378E-6 
460 10.5260 1.001370  2.637055E-6 
461 9.1883 0.989784 -1.975191E-5 
462 -18.7126 1.007235  1.405336E-5 
463 -9.5015 1.020819  4.062472E-5 
464 16.7178 1.010228  2.004982E-5 
465 -8.7371 1.019647  3.868961E-5 
466 -18.7890 1.029260  5.788261E-5 
467 19.0110 0.996095 -7.760112E-6 
468 -18.6361 1.015594  3.112990E-5 
469 10.0674 1.034537  6.925865E-5 
470 -19.7828 1.020533  4.136371E-5 
471 18.5906 1.013540  2.739969E-5 
472 -19.8210 1.008367  1.700882E-5 
473 8.7297 1.015087  3.080573E-5 
474 -10.1512 1.012379  2.539116E-5 
475 -9.1575 1.011691  2.408719E-5 
476 9.3412 0.997679 -4.803679E-6 
477 -18.4450 1.003491  7.257003E-6 
478 8.7297 0.989861 -2.117172E-5 
479 -9.1193 1.010318  2.164035E-5 
480 -11.7947 1.001893  3.989114E-6 
481 9.7999 1.004779  1.011343E-5 
482 -9.5779 0.997683 -4.924001E-6 
483 18.1701 0.988943 -2.360585E-5 
484 18.3230 1.022363  4.795526E-5 
485 -7.4758 1.028885  6.221429E-5 
486 10.5643 0.993069 -1.499489E-5 
487 17.7879 0.996858 -6.827745E-6 
488 -18.5979 1.006862  1.497546E-5 
489 -8.9282 1.017235  3.778007E-5 
490 8.4239 1.009751  2.146808E-5 
491 9.2648 1.017119  3.785364E-5 
492 -19.7063 1.025330  5.625491E-5 
493 17.9026 1.024056  5.365683E-5 
494 -19.0566 1.001585  3.550724E-6 
495 -7.7051 1.023670  5.325554E-5 
496 7.1626 1.029799  6.733800E-5 
497 -7.7815 0.992218 -1.766160E-5 
498 18.7817 0.995812 -9.546319E-6 
499 9.9910 1.003071  7.029663E-6 
500 -8.7753 1.026001  5.977483E-5 
501 17.7879 1.011550  2.666795E-5 
502 10.4114 1.019321  4.480127E-5 
503 7.8506 1.009702  2.259305E-5 
504 -19.0183 1.023487  5.492737E-5 
505 -10.7245 1.027124  6.370372E-5 
506 -9.3868 1.019473  4.592952E-5 
507 17.9408 1.014878  3.524086E-5 
508 -11.8329 1.017266  4.107084E-5 
509 -6.0616 0.988880 -2.656333E-5 
510 18.3230 0.982678 -4.155302E-5 
511 17.4822 0.982915 -4.115784E-5 
512 18.3230 0.999429 -1.381452E-6 
513 -3.1951 1.006706  1.629108E-5 
514 8.5004 1.013439  3.278628E-5 
515 8.4239 0.990952 -2.216615E-5 
516 -9.0046 1.008601  2.115866E-5 
517 9.6852 0.997651 -5.801692E-6 
518 8.7679 1.003228  8.007871E-6 
519 -19.4770 0.996179 -9.517286E-6 
520 17.7879 1.015137  3.786277E-5 
521 -9.8837 1.012395  3.113385E-5 
522 -2.6982 1.000643  1.621010E-6 
523 -19.5534 1.013457  3.408118E-5 
524 9.0354 1.016716  4.250948E-5 
525 0.6652 1.039048  9.971232E-5 
526 8.4239 1.004539  1.163803E-5 
527 -8.7753 0.979910 -5.172571E-5 
528 -9.3104 1.019027  4.918909E-5 
529 -9.5397 1.024572  6.378394E-5 
530 18.3612 1.004213  1.098014E-5 
531 -1.2076 0.988243 -3.076907E-5 
532 17.4439 1.018467  4.852883E-5 
533 10.6025 0.993145 -1.808615E-5 
534 16.9089 1.018179  4.816141E-5 
535 17.2911 1.018973  5.046815E-5 
536 8.3857 1.003610  9.641465E-6 
537 -19.8592 1.011577  3.104573E-5 
538 19.0492 1.012680  3.414150E-5 
539 14.8832 1.002704  7.309466E-6 
540 8.6915 1.032015  8.689451E-5 
541 6.0160 1.018234  4.968952E-5 
542 -19.4770 1.034383  9.407477E-5 
543 9.3412 1.012073  3.316435E-5 
544 -9.1575 0.987952 -3.323045E-5 
545 17.5586 1.027229  7.539874E-5 
546 18.3995 1.006941  1.929736E-5 
547 7.6595 1.019230  5.367629E-5 
548 17.4057 1.010158  2.846604E-5 
549 -8.8135 1.003932  1.106186E-5 
550 11.4433 1.007481  2.113022E-5 
551 -8.2020 0.990972 -2.560234E-5 
552 -19.5534 0.996958 -8.661813E-6 
553 -19.6681 1.006952  1.987154E-5 
554 11.5580 1.001808  5.187418E-6 
555 -8.5460 0.995438 -1.314307E-5 
