Filename:	Wind_Profile_100_20181024_050245.hpl
System ID:	100
Number of gates:	556
Range gate length (m):	18.0
Gate length (pts):	6
Pulses/ray:	1500
No. of rays in file:	3
Scan type:	Wind profile
Focus range:	65535
Start time:	20181024 05:02:52.12
Resolution (m/s):	0.0382
Altitude of measurement (center of gate) = (range gate + 0.5) * Gate length
Data line 1: Decimal time (hours)  Azimuth (degrees)  Elevation (degrees) Pitch (degrees) Roll (degrees)
f9.6,1x,f6.2,1x,f6.2
Data line 2: Range Gate  Doppler (m/s)  Intensity (SNR + 1)  Beta (m-1 sr-1)
i3,1x,f6.4,1x,f8.6,1x,e12.6 - repeat for no. gates
****
 5.047783  91.00  90.00 -0.00 0.09
  0 -0.0610 0.866315 -7.527106E-6
  1 -1.0930 0.866427 -7.525874E-6
  2 -10.3423 1.150930  8.511666E-6
  3 4.9841 1.020786  1.173596E-6
  4 -0.5961 1.028422  1.607046E-6
  5 0.3212 1.015991  9.057116E-7
  6 5.3663 1.038707  2.196613E-6
  7 -10.6099 1.017600  1.000995E-6
  8 17.2911 0.992543 -4.251412E-7
  9 -0.5579 1.032172  1.839235E-6
 10 -0.2139 1.032869  1.884619E-6
 11 1.5060 1.019131  1.100418E-6
 12 -0.0610 1.020145  1.162758E-6
 13 -10.6863 1.031722  1.837758E-6
 14 -0.5197 1.026072  1.516364E-6
 15 -0.1375 1.004046  2.362867E-7
 16 1.3914 1.022482  1.318789E-6
 17 10.3349 1.007374  4.345870E-7
 18 0.7416 1.007018  4.156185E-7
 19 -1.9338 1.015258  9.081651E-7
 20 -1.3605 1.012565  7.518650E-7
 21 0.2065 1.033665  2.025611E-6
 22 0.7416 0.997157 -1.720571E-7
 23 0.4358 1.030493  1.856318E-6
 24 -0.2521 1.043917  2.690024E-6
 25 0.2447 1.023250  1.433200E-6
 26 -0.9019 1.026750  1.659795E-6
 27 -0.2521 1.026116  1.631477E-6
 28 -0.2139 1.018569  1.168115E-6
 29 15.4183 1.002983  1.889735E-7
 30 -0.3286 1.016477  1.051565E-6
 31 -2.5071 1.012027  7.733842E-7
 32 -0.7490 1.005515  3.573872E-7
 33 0.3976 1.035292  2.304896E-6
 34 5.5574 0.986720 -8.743056E-7
 35 -0.8254 1.027921  1.853294E-6
 36 0.3594 1.016293  1.090572E-6
 37 -11.4125 1.008633  5.827666E-7
 38 -0.0228 1.028657  1.951263E-6
 39 17.4439 1.009029  6.201963E-7
 40 2.4615 1.000847  5.871193E-8
 41 -9.8454 1.004228  2.957218E-7
 42 18.5141 1.009955  7.026966E-7
 43 3.1495 1.006536  4.657352E-7
 44 -10.0748 0.998067 -1.390764E-7
 45 9.8763 1.017364  1.261032E-6
 46 0.5887 1.025596  1.877001E-6
 47 16.8324 1.001582  1.171373E-7
 48 -9.8072 1.020913  1.564190E-6
 49 -9.1575 1.002556  1.931326E-7
 50 -12.1387 1.009462  7.221342E-7
 51 2.3469 1.022876  1.763878E-6
 52 0.3212 1.011259  8.771517E-7
 53 -10.7245 0.997390 -2.054251E-7
 54 -2.0103 1.025004  1.989131E-6
 55 2.9966 0.995128 -3.917218E-7
 56 -6.1763 1.000354  2.877592E-8
 57 -0.8636 1.005710  4.690447E-7
 58 2.9202 1.010913  9.061854E-7
 59 -9.1193 1.010375  8.708931E-7
 60 3.4170 1.004502  3.821205E-7
 61 -9.9983 1.000825  7.083233E-8
 62 -12.2533 1.048904  4.243216E-6
 63 3.6846 0.996492 -3.078131E-7
 64 2.6144 1.015309  1.358294E-6
 65 -8.7371 1.000916  8.215422E-8
 66 2.1940 1.034483  3.129225E-6
 67 -10.4188 0.993901 -5.597692E-7
 68 1.9647 0.991901 -7.518632E-7
 69 0.3976 1.022399  2.103165E-6
 70 -9.9601 1.011664  1.107825E-6
 71 -9.8837 1.004943  4.749260E-7
 72 -9.0428 1.014037  1.364239E-6
 73 17.6733 1.017787  1.748747E-6
 74 -10.3805 1.015628  1.554402E-6
 75 16.5266 1.011460  1.153129E-6
 76 4.9841 1.008557  8.710787E-7
 77 -6.4056 1.001337  1.376967E-7
 78 0.3976 1.031891  3.323051E-6
 79 -2.1249 0.992228 -8.193904E-7
 80 -6.4820 0.997817 -2.328361E-7
 81 -0.4814 1.042999  4.640569E-6
 82 1.1620 0.989695 -1.125301E-6
 83 1.2767 0.998720 -1.413916E-7
 84 -10.9921 1.011637  1.300915E-6
 85 -10.7245 1.031963  3.615233E-6
 86 5.5956 1.003701  4.235408E-7
 87 -10.1894 1.004663  5.399436E-7
 88 18.4759 0.988490 -1.348599E-6
 89 17.2146 1.009452  1.120543E-6
 90 4.2961 1.023128  2.774216E-6
 91 15.5329 1.028076  3.407535E-6
 92 -10.7245 0.998591 -1.730396E-7
 93 15.3036 1.006147  7.637412E-7
 94 -4.8003 0.990422 -1.204099E-6
 95 3.4170 1.008073  1.026905E-6
 96 -8.0109 0.986401 -1.750120E-6
 97 2.0793 1.000124  1.617903E-8
 98 2.4615 1.013197  1.738605E-6
 99 -0.2521 0.995002 -6.661774E-7
100 -9.7690 1.015013  2.024478E-6
101 2.6144 1.014156  1.931396E-6
102 -11.8329 0.997059 -4.059939E-7
103 -10.4188 1.009655  1.348174E-6
104 5.2898 1.021379  3.020248E-6
105 16.6413 0.993228 -9.678687E-7
106 5.4809 1.000601  8.688618E-8
107 3.6081 1.000548  8.012886E-8
108 16.2973 1.007698  1.138902E-6
109 1.0474 1.040321  6.034607E-6
110 18.0172 1.003207  4.854565E-7
111 5.9778 1.034546  5.290227E-6
112 -12.2151 1.015358  2.378950E-6
113 -9.6161 1.001415  2.217391E-7
114 -11.0685 1.016321  2.586360E-6
115 -10.5334 1.024675  3.954953E-6
116 5.8632 1.008585  1.391717E-6
117 16.6413 0.986615 -2.194480E-6
118 1.9647 1.011547  1.914622E-6
119 16.2591 0.986227 -2.309666E-6
120 17.2146 0.999735 -4.497356E-8
121 -10.1512 1.004922  8.440825E-7
122 -1.8192 1.022104  3.833374E-6
123 6.3600 1.032300  5.664363E-6
124 2.5762 1.018975  3.364862E-6
125 -12.4062 0.999027 -1.745268E-7
126 17.5586 1.014116  2.559266E-6
127 -6.4820 1.017249  3.162065E-6
128 13.9277 1.016140  2.991490E-6
129 17.8644 0.984334 -2.935698E-6
130 -11.2596 1.008646  1.638097E-6
131 17.8261 1.022792  4.365361E-6
132 -14.1261 1.000678  1.313192E-7
133 4.2579 1.018795  3.678984E-6
134 -0.5961 0.992818 -1.421151E-6
135 -11.0685 0.996162 -7.676883E-7
136 -0.0228 0.998054 -3.934402E-7
137 -4.1506 0.999706 -6.011254E-8
138 2.9966 1.009750  2.014077E-6
139 -19.4388 0.986712 -2.774266E-6
140 -10.3805 1.014500  3.059846E-6
141 -2.4689 1.001957  4.173327E-7
142 8.1564 1.011635  2.507679E-6
143 -8.2784 1.003186  6.939759E-7
144 -19.9356 1.008421  1.853602E-6
145 3.1495 1.021169  4.708833E-6
146 15.9151 1.012251  2.753867E-6
147 2.4615 0.991642 -1.898275E-6
148 -11.9476 1.020869  4.789613E-6
149 -9.1575 1.024710  5.730073E-6
150 0.8945 1.005861  1.373312E-6
151 16.7178 1.013591  3.217269E-6
152 15.4565 1.009267  2.216205E-6
153 14.5392 1.014064  3.398235E-6
154 14.9596 1.017379  4.242206E-6
155 -10.8392 0.989439 -2.604113E-6
156 17.4057 1.012521  3.118968E-6
157 0.3976 1.013115  3.299997E-6
158 -11.8329 0.989464 -2.677861E-6
159 -11.7565 1.005515  1.415891E-6
160 -0.5197 1.017248  4.472612E-6
161 16.7560 1.005916  1.549552E-6
162 5.3281 1.034577  9.146701E-6
163 -10.2659 1.014563  3.890570E-6
164 -15.9225 1.001198  3.233136E-7
165 -10.3041 1.020116  5.481260E-6
166 5.6338 1.029660  8.161372E-6
167 -10.2659 1.013653  3.793697E-6
168 -9.1957 1.005579  1.565451E-6
169 -13.9350 1.005453  1.545100E-6
170 17.9408 0.992675 -2.095479E-6
171 1.2003 1.016911  4.884946E-6
172 -2.5453 1.009832  2.867446E-6
173 -9.3486 0.998712 -3.792489E-7
174 -10.0365 1.006875  2.043900E-6
175 -7.6669 1.014374  4.314317E-6
176 -9.9983 1.030787  9.328525E-6
177 -0.3286 1.016145  4.938659E-6
178 1.2385 1.018371  5.672756E-6
179 -8.8517 1.012900  4.020974E-6
180 18.5141 1.029231  9.197238E-6
181 -10.5716 1.009276  2.945998E-6
182 -8.9282 0.997930 -6.635750E-7
183 2.6526 1.014594  4.721912E-6
184 5.7867 1.007198  2.350448E-6
185 2.4615 1.009070  2.989394E-6
186 0.1301 1.006998  2.327628E-6
187 8.6915 1.002454  8.237385E-7
188 18.1319 1.029607  1.002999E-5
189 -0.3286 1.005027  1.718675E-6
190 -1.6663 1.013075  4.510537E-6
191 -0.9783 1.022508  7.835390E-6
192 -1.8574 1.014002  4.918518E-6
193 -7.9726 1.022937  8.129954E-6
194 5.7867 1.011107  3.972348E-6
195 16.9853 1.013528  4.881497E-6
196 -8.1637 1.005074  1.847375E-6
197 -7.3993 0.996330 -1.348052E-6
198 2.6526 1.013098  4.853616E-6
199 2.1940 1.015094  5.643125E-6
200 -9.9219 0.996490 -1.323765E-6
201 -10.3805 1.005211  1.982761E-6
202 -9.6926 0.991190 -3.381194E-6
203 17.0235 1.011954  4.628204E-6
204 -8.8517 1.005920  2.312029E-6
205 16.4884 1.012046  4.745120E-6
206 -12.4062 1.016149  6.416373E-6
207 17.1382 1.010669  4.275926E-6
208 17.5586 1.013732  5.550746E-6
209 -18.6361 1.013923  5.676207E-6
210 17.5204 1.009284  3.817197E-6
211 17.0235 0.995076 -2.041667E-6
212 4.8312 1.011098  4.641105E-6
213 2.9202 1.006284  2.650058E-6
214 -9.7308 1.001919  8.162510E-7
215 0.6652 0.986965 -5.590293E-6
216 -1.5134 1.004705  2.034881E-6
217 5.6338 1.013820  6.026685E-6
218 -1.4752 1.031389  1.380167E-5
219 -10.9156 1.008696  3.855351E-6
220 -10.1512 1.003979  1.778936E-6
221 16.7178 1.012047  5.429989E-6
222 -11.4125 1.014098  6.406657E-6
223 6.7804 1.024287  1.112726E-5
224 -2.0867 1.000131  6.067573E-8
225 -10.1512 0.988942 -5.149191E-6
226 0.8181 1.009535  4.476031E-6
227 -9.8837 0.995015 -2.358927E-6
228 -11.1832 1.027264  1.300700E-5
229 -9.8454 0.997055 -1.416285E-6
230 16.9471 1.005016  2.431532E-6
231 -8.6224 1.001595  7.796460E-7
232 -10.7627 1.020276  9.986807E-6
233 -10.8010 1.024313  1.207083E-5
234 5.2134 1.001959  9.800957E-7
235 -13.2853 1.009779  4.931931E-6
236 -8.3931 1.000773  3.929355E-7
237 -11.8329 1.007254  3.716283E-6
238 5.8632 0.982379 -9.098372E-6
239 -12.5973 1.015419  8.023939E-6
240 7.0480 1.007325  3.841374E-6
241 4.7930 1.007757  4.099389E-6
242 3.1495 1.006825  3.634795E-6
243 -10.5716 1.018467  9.911005E-6
244 3.7992 1.003097  1.674769E-6
245 16.7178 1.006887  3.753446E-6
246 1.9264 1.010675  5.862232E-6
247 -8.2020 0.996824 -1.757200E-6
248 -10.5716 1.002975  1.658954E-6
249 -9.9601 0.991175 -4.957427E-6
250 -11.2596 1.015126  8.561689E-6
251 16.7942 0.986480 -7.709854E-6
252 4.8312 0.994983 -2.882425E-6
253 -19.3623 0.989755 -5.930724E-6
254 -2.7747 1.007701  4.491019E-6
255 -0.3286 0.996609 -1.992549E-6
256 -11.1832 1.009728  5.758062E-6
257 4.3343 0.995647 -2.595325E-6
258 -9.0428 1.005033  3.023285E-6
259 -10.6099 0.987522 -7.550452E-6
260 -0.5961 1.013649  8.319380E-6
261 -9.5397 0.988337 -7.161073E-6
262 17.1764 0.998015 -1.227425E-6
263 -11.0685 1.009392  5.851020E-6
264 -2.3542 1.024626  1.545266E-5
265 -2.2014 1.004274  2.701648E-6
266 5.1752 0.999168 -5.296505E-7
267 -10.4570 1.011758  7.538804E-6
268 14.3481 0.986862 -8.483924E-6
269 -11.6800 1.006105  3.970751E-6
270 5.3281 0.992562 -4.872414E-6
271 7.1626 1.004554  3.004546E-6
272 2.8437 1.006763  4.493407E-6
273 -11.1832 1.006074  4.063879E-6
274 16.6795 1.006017  4.054083E-6
275 6.6658 1.011028  7.482908E-6
276 -10.7245 1.008808  6.018590E-6
277 6.9333 1.008119  5.586295E-6
278 5.9778 1.013299  9.214555E-6
279 4.9841 0.993926 -4.237662E-6
280 17.5968 0.994025 -4.197404E-6
281 2.9202 1.009222  6.523795E-6
282 8.1182 0.989585 -7.418001E-6
283 2.1940 1.005399  3.872293E-6
284 -9.0428 1.010507  7.586870E-6
285 -8.6988 0.997865 -1.551865E-6
286 -9.3868 0.997580 -1.771293E-6
287 2.6144 1.001271  9.364139E-7
288 -8.2784 0.986746 -9.833696E-6
289 6.2071 1.006097  4.554505E-6
290 3.5699 1.004643  3.491991E-6
291 0.4358 1.004556  3.449100E-6
292 -10.4570 1.000050  3.774168E-8
293 5.8249 0.994554 -4.178264E-6
294 7.4302 1.015187  1.173058E-5
295 -11.7182 1.002690  2.091535E-6
296 -0.6343 1.011187  8.756418E-6
297 -0.7872 1.008267  6.513567E-6
298 -13.1324 1.019621  1.556171E-5
299 1.2003 1.001671  1.333938E-6
300 -0.5197 1.006279  5.045820E-6
301 -1.1312 1.005931  4.797027E-6
302 17.0617 1.011223  9.137310E-6
303 15.9151 1.006102  5.000001E-6
304 -0.5197 1.015608  1.287301E-5
305 -11.0685 1.019975  1.658156E-5
306 -1.0547 1.001392  1.163159E-6
307 4.2579 1.008088  6.800940E-6
308 -10.9156 0.989576 -8.822063E-6
309 0.5505 1.000676  5.756767E-7
310 -7.6669 1.016617  1.424338E-5
311 -19.6299 0.996373 -3.128897E-6
312 -2.8129 0.987930 -1.047830E-5
313 -9.3104 1.015245  1.331916E-5
314 -10.3805 1.003738  3.286381E-6
315 7.0862 0.997139 -2.531188E-6
316 0.6652 0.996288 -3.305286E-6
317 -12.2151 0.998400 -1.433500E-6
318 14.7303 1.025699  2.316924E-5
319 3.1877 1.022107  2.005566E-5
320 16.1062 1.007619  6.955497E-6
321 -11.4889 1.017868  1.641282E-5
322 -10.4188 0.985085 -1.378515E-5
323 -2.7364 0.986442 -1.260905E-5
324 -10.0748 1.006281  5.877678E-6
325 -10.8010 1.009734  9.164605E-6
326 1.2385 0.998249 -1.658933E-6
327 2.4615 1.027027  2.575927E-5
328 9.1119 1.003354  3.215824E-6
329 15.3800 1.013995  1.350213E-5
330 -9.2339 1.027791  2.697517E-5
331 -11.6800 0.976959 -2.250075E-5
332 4.9841 1.022191  2.180163E-5
333 14.7303 0.998403 -1.578276E-6
334 18.1319 1.005010  4.981348E-6
335 -2.3160 1.001237  1.237216E-6
336 -11.5654 1.027094  2.726601E-5
337 0.6652 1.009220  9.333775E-6
338 17.9790 0.994184 -5.923403E-6
339 17.3293 0.994184 -5.958631E-6
340 -11.1832 1.010353  1.066973E-5
341 4.0668 1.006812  7.062382E-6
342 6.8951 1.013580  1.416195E-5
343 -0.2903 1.016051  1.683717E-5
344 3.9903 1.017269  1.822139E-5
345 -12.7884 1.008573  9.098636E-6
346 17.7879 1.003157  3.370159E-6
347 18.6288 1.016957  1.820876E-5
348 -8.0109 1.007371  7.961139E-6
349 5.7867 1.001266  1.374798E-6
350 3.9139 1.021770  2.378745E-5
351 -10.2659 1.006566  7.215798E-6
352 0.5123 1.010442  1.154238E-5
353 7.1244 1.001181  1.312574E-6
354 1.5442 1.028877  3.228701E-5
355 -2.1249 1.001946  2.188047E-6
356 -9.9601 0.991382 -9.747051E-6
357 2.1175 1.009076  1.032339E-5
358 16.1062 1.005183  5.928427E-6
359 0.9709 1.003295  3.791045E-6
360 -10.5334 0.999164 -9.674735E-7
361 5.4809 1.023778  2.766544E-5
362 -12.3298 1.030029  3.513515E-5
363 4.6401 1.008629  1.015287E-5
364 -11.0303 1.002064  2.442509E-6
365 3.8757 0.977211 -2.711561E-5
366 -10.9156 0.997086 -3.487107E-6
367 -4.2653 1.010886  1.309766E-5
368 0.6270 1.026421  3.196701E-5
369 0.4741 1.008130  9.891665E-6
370 -11.1832 0.996667 -4.076921E-6
371 -8.5077 1.003254  4.002295E-6
372 4.3343 0.998476 -1.885025E-6
373 -10.9538 1.023259  2.892862E-5
374 2.9966 1.005477  6.848894E-6
375 6.2071 1.020362  2.560388E-5
376 17.8644 1.005595  7.073804E-6
377 16.8324 1.008969  1.140169E-5
378 -9.9983 1.022953  2.933738E-5
379 15.4565 0.993564 -8.270438E-6
380 16.2209 0.972776 -3.517543E-5
381 -10.3041 1.009434  1.225495E-5
382 3.9139 0.991781 -1.073445E-5
383 -0.2521 0.992968 -9.234082E-6
384 -2.0867 0.997400 -3.432574E-6
385 -11.1832 0.992485 -9.974628E-6
386 -9.0046 1.012243  1.633644E-5
387 -10.4188 1.005521  7.406889E-6
388 -1.3223 1.015925  2.147701E-5
389 18.0937 1.036502  4.949002E-5
390 5.1752 0.985214 -2.015351E-5
391 19.0110 1.017558  2.405831E-5
392 -10.6099 0.984899 -2.080074E-5
393 -12.2151 1.016551  2.291784E-5
394 -10.4188 1.020180  2.809121E-5
395 14.8832 1.000924  1.292726E-6
396 4.6019 1.010188  1.433042E-5
397 -18.1775 1.033059  4.674581E-5
398 17.6350 1.007097  1.008802E-5
399 -9.8454 0.977225 -3.254032E-5
400 5.0605 1.007906  1.135525E-5
401 -2.6218 1.011394  1.644908E-5
402 -10.8010 1.001048  1.520242E-6
403 16.9089 1.032930  4.803151E-5
404 2.4998 1.009141  1.340201E-5
405 5.4045 1.000965  1.422508E-6
406 12.3988 0.987371 -1.870574E-5
407 2.3087 1.006501  9.679464E-6
408 -8.8135 1.030401  4.549227E-5
409 -9.6161 1.014970  2.251513E-5
410 -9.9983 0.979422 -3.110864E-5
411 17.1382 1.008204  1.246581E-5
412 -11.1067 1.009908  1.512983E-5
413 -9.0428 0.987555 -1.910140E-5
414 17.3675 1.005285  8.153056E-6
415 6.3600 1.009614  1.490462E-5
416 -10.8774 0.991584 -1.311261E-5
417 -11.2978 0.999235 -1.198479E-6
418 5.4045 1.008442  1.328612E-5
419 16.0298 1.013224  2.091595E-5
420 5.7103 1.018144  2.883997E-5
421 -3.0040 1.010570  1.688526E-5
422 3.9903 1.003248  5.214588E-6
423 17.6350 1.001365  2.202322E-6
424 6.3982 0.990460 -1.546734E-5
425 3.4935 1.017207  2.803545E-5
426 3.9521 1.004022  6.586010E-6
427 17.7115 0.988443 -1.901641E-5
428 -10.7627 1.007982  1.319809E-5
429 -7.8198 1.006486  1.077643E-5
430 -10.0365 1.010276  1.715773E-5
431 -11.9093 0.991028 -1.505341E-5
432 8.5386 1.009616  1.621368E-5
433 -6.4820 1.011398  1.931136E-5
434 -10.8010 1.019899  3.387794E-5
435 -10.1894 1.002879  4.925027E-6
436 -9.3868 1.005562  9.560811E-6
437 -9.8454 1.010282  1.775952E-5
438 -11.9476 1.017870  3.101525E-5
439 -6.8260 0.998137 -3.249532E-6
440 17.5968 1.008893  1.558352E-5
441 -11.0685 1.008034  1.414448E-5
442 2.8055 0.999860 -2.484369E-7
443 5.4045 1.008630  1.533935E-5
444 17.7497 0.991251 -1.562558E-5
445 6.5511 0.996828 -5.691996E-6
446 2.7291 1.013143  2.369581E-5
447 -10.8774 1.025037  4.535521E-5
448 -8.7371 0.997966 -3.702425E-6
449 1.1238 0.998332 -3.050655E-6
450 16.9089 0.995156 -8.898810E-6
451 -11.8711 0.992580 -1.369723E-5
452 -10.0365 0.991708 -1.537756E-5
453 -11.1067 0.992168 -1.459332E-5
454 5.3663 0.995432 -8.550358E-6
455 -14.0879 1.023054  4.335653E-5
456 18.5141 0.984345 -2.957802E-5
457 -4.9532 1.024307  4.613759E-5
458 17.8261 0.988752 -2.144997E-5
459 4.9076 0.993429 -1.258908E-5
460 -10.1894 0.984992 -2.888471E-5
461 -8.8517 0.989086 -2.110267E-5
462 5.5192 1.016492  3.203429E-5
463 -3.9213 1.023716  4.627834E-5
464 15.7622 1.011926  2.337770E-5
465 -9.6543 1.006699  1.319135E-5
466 -2.9275 1.024392  4.825367E-5
467 -9.2721 1.000757  1.504133E-6
468 -6.4820 1.010111  2.018472E-5
469 6.1689 1.010385  2.082661E-5
470 15.0743 1.021361  4.303149E-5
471 1.4678 0.980922 -3.860659E-5
472 15.6094 0.998138 -3.784815E-6
473 -19.0183 0.989943 -2.053617E-5
474 -0.0610 1.006594  1.352496E-5
475 -9.4250 1.013227  2.725258E-5
476 17.0235 1.012926  2.675045E-5
477 4.4872 0.996003 -8.309972E-6
478 -8.6988 1.012252  2.558414E-5
479 -9.4250 1.026557  5.570159E-5
480 -2.5071 1.014122  2.975197E-5
481 6.2071 1.014430  3.053589E-5
482 -10.5716 1.014415  3.064038E-5
483 -2.5071 0.992500 -1.601239E-5
484 1.4296 1.012936  2.773950E-5
485 -12.2533 0.998234 -3.803041E-6
486 -1.1694 1.000252  5.451939E-7
487 -11.7182 1.000535  1.161812E-6
488 16.9853 1.018253  3.983591E-5
489 -9.5779 1.001338  2.932395E-6
490 15.8005 1.009161  2.016836E-5
491 1.4678 0.994940 -1.118774E-5
492 2.5762 1.021890  4.861487E-5
493 6.9715 1.011474  2.559292E-5
494 -12.1005 1.026048  5.835312E-5
495 5.7485 1.014327  3.223626E-5
496 -0.3668 0.999214 -1.776711E-6
497 6.0543 1.013101  2.973151E-5
498 6.7040 1.000775  1.767372E-6
499 4.3343 1.031034  7.103953E-5
500 -9.2339 1.022513  5.175692E-5
501 -11.4889 1.015410  3.557893E-5
502 -0.0992 0.992597 -1.716648E-5
503 17.2146 1.022135  5.154525E-5
504 -0.2139 1.013009  3.042395E-5
505 -0.1375 1.008458  1.986535E-5
506 -0.6725 1.015629  3.686207E-5
507 6.5129 1.032158  7.617006E-5
508 -11.6036 1.015831  3.765585E-5
509 -11.2596 0.981377 -4.448631E-5
510 -3.3098 1.005983  1.435299E-5
511 10.6025 1.003834  9.236533E-6
512 -10.2276 1.009415  2.277588E-5
513 2.9584 0.994987 -1.217746E-5
514 -8.7753 1.009242  2.254661E-5
515 -10.8392 1.006288  1.540532E-5
516 17.9790 1.011364  2.795502E-5
517 3.1113 0.996379 -8.945116E-6
518 17.4057 1.008195  2.032981E-5
519 -9.2339 0.997309 -6.702446E-6
520 3.1113 1.003814  9.540645E-6
521 -4.1124 1.000819  2.055976E-6
522 -4.7239 1.008419  2.123332E-5
523 16.0298 1.008991  2.277184E-5
524 17.1764 0.996010 -1.014646E-5
525 -11.8329 1.009198  2.348888E-5
526 -9.7308 1.020806  5.334872E-5
527 -10.7627 1.001284  3.306758E-6
528 -12.5973 1.020009  5.172871E-5
529 -5.3354 1.019634  5.096657E-5
530 -11.5271 0.999141 -2.237970E-6
531 -10.3041 1.002323  6.078944E-6
532 -8.3548 1.024408  6.413924E-5
533 7.5831 1.003823  1.008775E-5
534 -11.6800 1.016844  4.462351E-5
535 -10.4570 0.997408 -6.895712E-6
536 -0.5579 1.015640  4.177216E-5
537 13.0486 1.029953  8.032111E-5
538 -11.8329 1.013748  3.701499E-5
539 4.4108 1.011068  2.991916E-5
540 -10.2276 0.992722 -1.975446E-5
541 4.1050 1.007404  2.017592E-5
542 16.5649 1.006583  1.801060E-5
543 -10.9156 1.026386  7.248454E-5
544 1.4678 1.032013  8.829298E-5
545 -19.8592 0.979771 -5.601531E-5
546 -11.4507 1.013174  3.662443E-5
547 -12.7120 1.001685  4.702579E-6
548 -1.0547 1.002801  7.849895E-6
549 -1.5898 0.994344 -1.591216E-5
550 -10.1130 0.984315 -4.430306E-5
551 -2.3925 0.986663 -3.782151E-5
552 -9.9601 1.029118  8.290140E-5
553 -14.2026 1.023347  6.673242E-5
554 -8.5842 1.001062  3.046253E-6
555 -10.6099 1.006036  1.738864E-5
 5.049125 360.00  10.00 -0.00 0.09
  0 -0.1757 0.904565 -5.373428E-6 
  1 -1.2076 0.903112 -5.458905E-6 
  2 -14.0497 1.060892  3.434012E-6 
  3 -9.3868 1.019561  1.104473E-6 
  4 -5.9852 0.997955 -1.156117E-7 
  5 -0.1375 1.022106  1.252073E-6 
  6 11.5198 1.014323  8.128327E-7 
  7 17.7115 1.008252  4.693301E-7 
  8 -2.4307 1.032152  1.833114E-6 
  9 -15.7696 1.051225  2.928473E-6 
 10 -9.1575 1.022322  1.279867E-6 
 11 14.0805 1.010552  6.069570E-7 
 12 -19.4770 1.003782  2.183092E-7 
 13 -11.7182 1.007908  4.581451E-7 
 14 -0.1757 1.024448  1.421935E-6 
 15 -0.3668 0.979925 -1.172449E-6 
 16 4.1050 1.023063  1.352906E-6 
 17 10.0292 1.027430  1.616533E-6 
 18 -0.0610 1.016600  9.830176E-7 
 19 0.3594 1.003534  2.103582E-7 
 20 0.0536 1.016347  9.781446E-7 
 21 -2.1249 1.023140  1.392317E-6 
 22 13.2779 0.999887 -6.819819E-9 
 23 -12.8649 1.024119  1.468297E-6 
 24 9.6470 1.005602  3.431334E-7 
 25 -0.2139 1.004631  2.854943E-7 
 26 0.2447 1.006099  3.784394E-7 
 27 1.8882 1.014811  9.252436E-7 
 28 -0.9783 1.001711  1.076487E-7 
 29 -0.0992 1.011546  7.314904E-7 
 30 18.8581 1.016426  1.048332E-6 
 31 -8.7371 0.992779 -4.643405E-7 
 32 -1.8192 1.006681  4.329175E-7 
 33 -2.1249 1.015535  1.014572E-6 
 34 1.4296 1.018460  1.215346E-6 
 35 6.8569 1.022760  1.510758E-6 
 36 10.2585 0.984203 -1.057321E-6 
 37 -16.1900 0.998943 -7.136394E-8 
 38 -17.3367 1.021397  1.456955E-6 
 39 -9.8454 1.000248  1.706387E-8 
 40 8.6150 1.007681  5.323515E-7 
 41 -19.0566 0.994500 -3.846531E-7 
 42 1.8882 1.027967  1.974205E-6 
 43 12.6282 1.008344  5.945140E-7 
 44 -2.7747 1.015648  1.125534E-6 
 45 -2.0103 1.012934  9.393160E-7 
 46 -18.6361 1.000745  5.465309E-8 
 47 -3.0040 1.010558  7.818421E-7 
 48 18.9728 1.027838  2.082144E-6 
 49 -19.7828 1.011063  8.358302E-7 
 50 18.0555 1.028322  2.161485E-6 
 51 9.7234 1.013018  1.003783E-6 
 52 -0.7108 1.032570  2.537379E-6 
 53 -15.1963 1.009567  7.531212E-7 
 54 9.6470 1.008573  6.820487E-7 
 55 18.2466 1.017007  1.367339E-6 
 56 1.2003 0.997492 -2.038121E-7 
 57 2.6909 0.996449 -2.916974E-7 
 58 14.3481 1.012337  1.024363E-6 
 59 16.8324 0.985433 -1.222801E-6 
 60 2.8055 0.998341 -1.408057E-7 
 61 15.8005 1.009458  8.115812E-7 
 62 13.0868 1.014656  1.271668E-6 
 63 18.7052 0.992283 -6.770626E-7 
 64 18.6670 0.995533 -3.963402E-7 
 65 14.6921 1.015068  1.351993E-6 
 66 -6.0616 1.041255  3.743705E-6 
 67 14.1570 1.013606  1.248799E-6 
 68 -0.2521 1.006560  6.089985E-7 
 69 -18.6744 1.024721  2.321180E-6 
 70 -17.7953 0.982558 -1.656621E-6 
 71 17.6733 1.016889  1.622658E-6 
 72 -0.5579 1.007572  7.358794E-7 
 73 -5.5265 1.003447  3.389219E-7 
 74 16.6031 1.018228  1.813022E-6 
 75 -15.9607 1.020136  2.026120E-6 
 76 15.7622 1.006260  6.372598E-7 
 77 8.7679 1.007805  8.038363E-7 
 78 19.1256 1.007201  7.503757E-7 
 79 -3.0040 0.997970 -2.140620E-7 
 80 -1.3223 1.021861  2.331785E-6 
 81 -14.2790 1.009952  1.074023E-6 
 82 -6.3674 0.996322 -4.016604E-7 
 83 -0.1375 1.003185  3.518431E-7 
 84 12.5135 1.012469  1.393917E-6 
 85 14.0423 1.014412  1.630121E-6 
 86 -0.4050 1.011548  1.321649E-6 
 87 18.9728 0.999890 -1.278987E-8 
 88 -18.7508 1.017836  2.089741E-6 
 89 -5.3354 0.981752 -2.163262E-6 
 90 -8.5077 1.011292  1.354435E-6 
 91 14.1570 1.011304  1.371943E-6 
 92 7.2009 1.023510  2.887073E-6 
 93 13.5455 1.008798  1.093201E-6 
 94 18.8581 1.012707  1.597466E-6 
 95 11.8255 1.023858  3.034665E-6 
 96 -0.9401 0.975871 -3.105264E-6 
 97 17.5586 1.011613  1.512104E-6 
 98 -18.1775 1.018189  2.396319E-6 
 99 5.6338 1.018072  2.408828E-6 
100 -8.9282 1.010017  1.350857E-6 
101 18.6670 1.002069  2.822472E-7 
102 -5.3737 0.983298 -2.305382E-6 
103 -18.7508 1.018434  2.574108E-6 
104 15.8387 1.042704  6.032807E-6 
105 9.6470 1.001861  2.660274E-7 
106 -11.0303 1.019545  2.825717E-6 
107 -2.0485 0.984115 -2.323289E-6 
108 0.5505 1.004568  6.758124E-7 
109 -18.3304 1.023077  3.453783E-6 
110 10.7171 1.018653  2.823841E-6 
111 13.0104 1.008322  1.274427E-6 
112 -8.3166 1.028963  4.486301E-6 
113 -9.4250 1.004264  6.680970E-7 
114 12.9339 1.019184  3.040118E-6 
115 -5.6794 0.994535 -8.759866E-7 
116 17.4439 1.020143  3.265260E-6 
117 -14.5466 0.993738 -1.026590E-6 
118 -18.8655 0.992385 -1.262706E-6 
119 10.8318 1.005728  9.604470E-7 
120 18.6670 1.013976  2.370163E-6 
121 2.1558 1.026294  4.509240E-6 
122 -19.4770 0.990600 -1.630193E-6 
123 -0.0228 1.008105  1.421383E-6 
124 -6.4438 1.010056  1.783262E-6 
125 -10.6863 1.022133  3.968599E-6 
126 -6.9407 1.001930  3.499366E-7 
127 -16.8016 0.994499 -1.008485E-6 
128 -4.6475 1.014230  2.637531E-6 
129 16.2973 0.984035 -2.991731E-6 
130 -1.2076 1.012968  2.456906E-6 
131 12.9339 1.024903  4.769847E-6 
132 -16.3047 0.994671 -1.031791E-6 
133 -18.6361 1.028284  5.536413E-6 
134 -15.3492 1.007155  1.415870E-6 
135 -18.8655 1.033275  6.655752E-6 
136 -19.8592 0.985960 -2.838742E-6 
137 4.1432 1.028160  5.755034E-6 
138 11.8638 1.013729  2.836058E-6 
139 -18.5215 1.023458  4.897749E-6 
140 -3.6920 0.983389 -3.505149E-6 
141 11.9402 0.996657 -7.130108E-7 
142 -6.8260 1.014375  3.098235E-6 
143 15.6858 0.984093 -3.464783E-6 
144 11.8638 1.031990  7.041694E-6 
145 -11.8329 1.005283  1.175112E-6 
146 -3.5009 0.993287 -1.509010E-6 
147 8.5768 1.008973  2.038167E-6 
148 12.3606 0.992335 -1.759041E-6 
149 -16.9162 1.016239  3.765744E-6 
150 12.0166 1.013581  3.181944E-6 
151 -19.2859 1.013208  3.126675E-6 
152 -16.8016 1.012798  3.060729E-6 
153 -18.3686 1.008437  2.038605E-6 
154 -10.7627 1.032870  8.023542E-6 
155 12.9721 1.013877  3.421988E-6 
156 -18.7508 1.004964  1.236483E-6 
157 -4.4564 0.997909 -5.262687E-7 
158 -4.6092 1.015816  4.020038E-6 
159 14.2716 1.021323  5.474408E-6 
160 11.2522 1.008432  2.186438E-6 
161 11.0229 1.005880  1.540096E-6 
162 14.5774 0.994269 -1.515966E-6 
163 12.8957 1.005110  1.365163E-6 
164 -1.5898 0.998155 -4.978842E-7 
165 -0.5579 1.000977  2.662965E-7 
166 -9.3104 1.035534  9.777874E-6 
167 -10.9538 1.008969  2.492154E-6 
168 0.3594 0.995744 -1.194075E-6 
169 -18.7126 1.021953  6.220111E-6 
170 -17.1455 1.010899  3.118034E-6 
171 -18.7126 1.013664  3.947001E-6 
172 -9.8072 1.025113  7.324300E-6 
173 12.0931 0.999790 -6.183539E-8 
174 15.5329 1.018831  5.598243E-6 
175 18.6670 1.007985  2.396655E-6 
176 12.6282 1.013215  4.004048E-6 
177 13.4690 1.005709  1.746291E-6 
178 -6.7878 1.021332  6.586959E-6 
179 -19.2095 0.985565 -4.499400E-6 
180 15.5711 0.996784 -1.011981E-6 
181 14.6156 1.007811  2.480683E-6 
182 0.7034 1.001226  3.930763E-7 
183 2.8437 1.004608  1.490858E-6 
184 -11.2214 0.991359 -2.821825E-6 
185 -4.1506 0.987649 -4.070656E-6 
186 -3.8448 1.016285  5.416755E-6 
187 0.4741 1.017169  5.763476E-6 
188 15.7622 1.017160  5.813389E-6 
189 13.5455 1.015804  5.402904E-6 
190 -1.0165 1.017326  5.977289E-6 
191 16.3355 1.024740  8.612663E-6 
192 18.1319 1.013116  4.607275E-6 
193 12.5135 1.023035  8.164612E-6 
194 16.2973 1.000023  8.220720E-9 
195 16.6031 1.012543  4.525908E-6 
196 -18.1393 1.005600  2.038719E-6 
197 -9.0046 1.016997  6.243004E-6 
198 -17.5660 1.014338  5.313387E-6 
199 19.0110 1.004144  1.549134E-6 
200 -17.1838 0.991921 -3.046827E-6 
201 -16.0754 1.015111  5.749190E-6 
202 -17.9100 1.017640  6.770345E-6 
203 -17.7189 1.037317  1.444758E-5 
204 -0.2903 1.029124  1.137374E-5 
205 1.8118 0.991603 -3.307650E-6 
206 0.2830 1.030739  1.221375E-5 
207 -1.1694 0.996773 -1.293397E-6 
208 17.4439 1.033611  1.358601E-5 
209 -9.0046 1.014809  6.037342E-6 
210 -0.4432 1.012849  5.283012E-6 
211 8.0417 0.993560 -2.670306E-6 
212 -18.8655 1.011040  4.616865E-6 
213 2.1558 0.992444 -3.186636E-6 
214 14.3863 1.004907  2.086997E-6 
215 17.6350 0.994905 -2.184845E-6 
216 -6.7878 1.009747  4.214942E-6 
217 -10.2659 1.009810  4.277967E-6 
218 17.0617 1.016647  7.319523E-6 
219 -1.3223 1.011861  5.258755E-6 
220 -2.6982 0.991058 -3.997093E-6 
221 16.0680 1.001898  8.554292E-7 
222 -16.6869 1.009799  4.452868E-6 
223 10.4114 1.021761  9.969658E-6 
224 1.9264 1.012197  5.633875E-6 
225 11.7491 0.976597 -1.089802E-5 
226 -1.4370 1.010264  4.818612E-6 
227 1.3531 1.010470  4.955047E-6 
228 -10.4570 0.996965 -1.447818E-6 
229 -17.8335 0.993727 -3.016955E-6 
230 1.4296 1.021837  1.058583E-5 
231 12.5899 0.998282 -8.392721E-7 
232 -19.6299 1.027144  1.337010E-5 
233 10.0674 1.032430  1.610032E-5 
234 12.8575 1.006157  3.081023E-6 
235 -17.0309 1.011534  5.817468E-6 
236 16.9089 1.015221  7.737249E-6 
237 14.7303 1.015091  7.731561E-6 
238 12.1695 1.009651  4.983175E-6 
239 3.3024 1.033063  1.720512E-5 
240 2.6144 1.008909  4.671991E-6 
241 0.0919 0.998435 -8.272816E-7 
242 -8.1637 0.993258 -3.590509E-6 
243 18.7052 1.033755  1.811629E-5 
244 3.7610 1.016718  9.041761E-6 
245 -15.6550 1.013757  7.497283E-6 
246 8.9590 1.025602  1.405919E-5 
247 -0.3286 1.027855  1.541282E-5 
248 -3.9977 0.998088 -1.065780E-6 
249 18.5523 1.007163  4.024150E-6 
250 -2.5071 1.008448  4.781502E-6 
251 -19.3241 0.995503 -2.564542E-6 
252 12.7810 1.023725  1.363126E-5 
253 -16.6105 1.022142  1.281706E-5 
254 16.5266 1.012941  7.547064E-6 
255 -8.6606 1.000024  1.434407E-8 
256 -14.3937 1.015994  9.466970E-6 
257 -0.4814 1.008986  5.358010E-6 
258 -1.4752 1.011520  6.920019E-6 
259 16.9853 0.991946 -4.873184E-6 
260 -19.7063 1.015015  9.152159E-6 
261 -19.1712 1.017903  1.099214E-5 
262 -19.8974 0.992688 -4.522291E-6 
263 -16.3047 0.985927 -8.767123E-6 
264 -19.4006 1.022711  1.425094E-5 
265 -12.9413 1.009163  5.791266E-6 
266 10.6025 0.986856 -8.367469E-6 
267 -18.4450 1.025427  1.630333E-5 
268 9.7616 1.000274  1.771045E-7 
269 -19.1712 1.026805  1.743402E-5 
270 -19.4006 1.001178  7.715049E-7 
271 -15.8078 0.982312 -1.166840E-5 
272 -16.8398 1.002199  1.461065E-6 
273 0.4358 1.015693  1.050001E-5 
274 -17.7571 1.018120  1.220892E-5 
275 -17.5660 1.035995  2.442386E-5 
276 -12.2533 1.003582  2.447867E-6 
277 2.7291 0.990614 -6.458528E-6 
278 -18.0246 1.022766  1.577356E-5 
279 -7.7051 1.003669  2.559502E-6 
280 17.7497 1.011311  7.946592E-6 
281 0.6270 1.000963  6.813745E-7 
282 0.2065 1.011917  8.487724E-6 
283 16.4884 0.998244 -1.259450E-6 
284 -16.1518 1.013387  9.666454E-6 
285 -15.5403 1.006532  4.749127E-6 
286 -3.3480 0.991771 -6.023160E-6 
287 -15.3874 1.001514  1.115581E-6 
288 3.7228 1.015000  1.112918E-5 
289 -1.4752 1.013714  1.024453E-5 
290 15.9533 1.009293  6.988466E-6 
291 11.1376 0.991942 -6.100864E-6 
292 -17.2220 1.013863  1.056634E-5 
293 0.5123 0.993539 -4.957235E-6 
294 -14.0497 1.008390  6.480165E-6 
295 18.7817 1.001247  9.692978E-7 
296 -17.6042 1.014287  1.118254E-5 
297 11.9020 0.999210 -6.224570E-7 
298 18.9728 1.027203  2.157505E-5 
299 -19.9739 1.010773  8.600108E-6 
300 5.0223 1.012051  9.684103E-6 
301 -1.0930 1.019878  1.607776E-5 
302 1.0474 1.000494  4.025180E-7 
303 15.6094 1.006754  5.534866E-6 
304 14.3481 1.026161  2.157662E-5 
305 0.2065 1.025542  2.120250E-5 
306 -6.5967 0.985912 -1.177008E-5 
307 14.8067 1.000616  5.176818E-7 
308 -11.2596 1.000804  6.808257E-7 
309 -9.0046 0.997684 -1.972717E-6 
310 12.0549 1.007771  6.661304E-6 
311 -1.1694 1.001841  1.588100E-6 
312 11.0611 0.998987 -8.790689E-7 
313 -10.4570 1.011733  1.025089E-5 
314 -13.3235 1.016860  1.482321E-5 
315 18.9345 1.000929  8.222734E-7 
316 1.0092 1.004785  4.260004E-6 
317 0.0536 1.009313  8.344137E-6 
318 14.9978 1.002167  1.953303E-6 
319 -0.2903 1.010011  9.081848E-6 
320 -7.0554 1.020774  1.896348E-5 
321 -14.2408 0.998928 -9.846230E-7 
322 -17.6042 1.022400  2.070350E-5 
323 12.5899 0.997712 -2.127850E-6 
324 -17.9482 1.003267  3.056728E-6 
325 10.5643 1.006919  6.514310E-6 
326 -2.8129 0.992571 -7.037824E-6 
327 -13.3235 1.011215  1.068870E-5 
328 6.2454 1.001018  9.765954E-7 
329 -3.0422 1.019459  1.877414E-5 
330 17.9790 0.997428 -2.496288E-6 
331 14.4627 1.019791  1.932679E-5 
332 -3.9213 1.014189  1.394017E-5 
333 16.7178 1.020610  2.037090E-5 
334 -18.9037 1.007331  7.290066E-6 
335 -18.3304 1.021847  2.185485E-5 
336 17.4822 1.020536  2.066667E-5 
337 -19.5534 0.994647 -5.419153E-6 
338 18.3995 1.011223  1.142942E-5 
339 -1.2841 0.997852 -2.200120E-6 
340 -16.3811 1.021787  2.245373E-5 
341 -2.9275 0.993940 -6.282642E-6 
342 11.4051 1.023865  2.488733E-5 
343 11.8638 1.012398  1.300483E-5 
344 9.7616 1.016433  1.733960E-5 
345 -17.9482 0.990724 -9.845091E-6 
346 4.8312 1.004326  4.618233E-6 
347 16.7178 1.013328  1.431177E-5 
348 -19.2095 1.006805  7.350105E-6 
349 -17.6806 1.011029  1.198161E-5 
350 -3.3480 1.014469  1.580954E-5 
351 0.0919 1.001567  1.722366E-6 
352 -0.4050 1.000048  5.334169E-8 
353 -17.1073 1.001069  1.188627E-6 
354 0.2447 1.007293  8.154867E-6 
355 -16.7251 1.003240  3.643061E-6 
356 -1.6281 0.994930 -5.734264E-6 
357 -14.8523 0.990430 -1.088529E-5 
358 10.9082 0.998563 -1.643332E-6 
359 -4.2653 1.016799  1.932560E-5 
360 -16.3047 0.992240 -8.978014E-6 
361 18.6288 1.001176  1.368658E-6 
362 -18.9801 1.015070  1.763244E-5 
363 10.3732 1.000144  1.692526E-7 
364 11.0611 1.005145  6.087231E-6 
365 -18.7890 0.997057 -3.501394E-6 
366 15.6858 0.986832 -1.575546E-5 
367 -17.5660 1.005953  7.162508E-6 
368 0.7798 1.014603  1.766815E-5 
369 -8.7753 1.023756  2.890189E-5 
370 16.7560 0.992060 -9.713655E-6 
371 -14.4319 1.007214  8.873799E-6 
372 7.9653 0.992968 -8.698451E-6 
373 -8.5842 1.010502  1.306212E-5 
374 -0.5579 0.991625 -1.047317E-5 
375 -14.1261 1.007652  9.621317E-6 
376 -18.7890 1.002200  2.781020E-6 
377 -13.0942 1.003133  3.983216E-6 
378 16.4502 0.996554 -4.404184E-6 
379 -16.4958 1.006901  8.868507E-6 
380 -19.7828 0.995895 -5.303790E-6 
381 -12.9413 1.024669  3.204612E-5 
382 -18.9801 0.990576 -1.230902E-5 
383 11.4433 0.996237 -4.940591E-6 
384 -12.9031 1.027152  3.584566E-5 
385 -7.7815 1.000383  5.079675E-7 
386 18.9728 0.992244 -1.034933E-5 
387 16.5649 1.005564  7.464576E-6 
388 -18.6361 1.001878  2.532683E-6 
389 -17.8335 1.029530  4.003637E-5 
390 7.7360 1.013168  1.794754E-5 
391 -1.4752 1.008236  1.128561E-5 
392 -8.5842 0.986775 -1.821653E-5 
393 1.7736 1.012446  1.723378E-5 
394 -2.5836 1.011084  1.542952E-5 
395 -19.2859 0.990962 -1.264769E-5 
396 0.2447 1.005079  7.144012E-6 
397 12.6282 1.019887  2.812039E-5 
398 14.5774 1.015793  2.244848E-5 
399 -0.0610 0.998036 -2.806762E-6 
400 -19.1330 1.020958  3.009984E-5 
401 -9.6543 1.011357  1.639551E-5 
402 -18.1775 1.019727  2.862689E-5 
403 -7.3611 1.018659  2.721699E-5 
404 -14.9288 0.993768 -9.137607E-6 
405 15.0743 1.017855  2.631252E-5 
406 0.6652 1.000249  3.681014E-7 
407 -19.7063 1.009267  1.379676E-5 
408 -16.4576 1.013180  1.972306E-5 
409 -10.1894 1.019358  2.911524E-5 
410 -19.2859 1.015080  2.279591E-5 
411 11.7491 0.991949 -1.223262E-5 
412 -17.1073 1.014744  2.251513E-5 
413 17.1764 1.029063  4.460601E-5 
414 0.2447 1.015677  2.418254E-5 
415 18.6670 1.005264  8.160883E-6 
416 18.0555 1.008804  1.371802E-5 
417 -18.1393 0.989388 -1.661767E-5 
418 12.7428 1.016729  2.632750E-5 
419 -14.9670 1.014665  2.319526E-5 
420 -12.9795 1.018621  2.959891E-5 
421 -1.0165 1.014886  2.377936E-5 
422 -16.7633 1.002430  3.901485E-6 
423 -4.3417 1.016682  2.691315E-5 
424 -19.5152 0.991899 -1.313446E-5 
425 -0.7108 1.017640  2.874182E-5 
426 8.9208 1.020782  3.402737E-5 
427 17.9408 0.991217 -1.445173E-5 
428 -2.5836 1.018552  3.067545E-5 
429 0.8181 1.012470  2.072000E-5 
430 -16.6487 1.013755  2.296694E-5 
431 12.4753 1.011694  1.962154E-5 
432 9.4559 1.003289  5.544620E-6 
433 8.8061 0.995368 -7.847300E-6 
434 -14.6612 1.031864  5.424720E-5 
435 2.5380 0.992038 -1.362151E-5 
436 13.8512 1.025469  4.377987E-5 
437 -12.8649 1.016393  2.831513E-5 
438 18.7434 1.011503  1.996463E-5 
439 -16.0754 0.988878 -1.939596E-5 
440 0.5505 1.015030  2.633604E-5 
441 16.0680 1.032985  5.807506E-5 
442 -2.1249 1.002039  3.607035E-6 
443 5.5192 1.001480  2.630749E-6 
444 -17.8717 0.998836 -2.078085E-6 
445 -3.0422 0.999789 -3.782729E-7 
446 -2.9658 1.032149  5.796348E-5 
447 9.8763 1.006148  1.113700E-5 
448 0.8181 1.026150  4.759436E-5 
449 15.2272 1.032812  6.000112E-5 
450 -5.6030 0.992944 -1.296440E-5 
451 12.6664 0.999610 -7.194922E-7 
452 11.6344 0.982981 -3.156269E-5 
453 -8.5842 1.005572  1.038137E-5 
454 4.7165 0.992780 -1.351518E-5 
455 10.1056 1.012842  2.415177E-5 
456 0.7034 0.992553 -1.407046E-5 
457 11.5580 0.997127 -5.453272E-6 
458 -16.6869 1.002756  5.255548E-6 
459 -18.1393 1.018373  3.519916E-5 
460 9.6852 1.011000  2.117092E-5 
461 -3.9977 1.009183  1.775454E-5 
462 13.9277 0.993382 -1.285430E-5 
463 -16.3811 1.018036  3.519312E-5 
464 -18.8272 1.016313  3.197867E-5 
465 13.2397 1.005504  1.083928E-5 
466 -19.1712 1.001540  3.046901E-6 
467 19.0110 0.989185 -2.149233E-5 
468 0.9709 0.999985 -2.965809E-8 
469 -1.0930 1.012386  2.483911E-5 
470 -18.7126 1.015811  3.185077E-5 
471 19.1256 1.001040  2.104710E-6 
472 -5.5265 1.000447  9.087464E-7 
473 -7.1700 1.023919  4.884071E-5 
474 0.7798 1.014041  2.879910E-5 
475 -16.6105 1.003499  7.208361E-6 
476 0.2447 1.008413  1.741151E-5 
477 -17.7189 0.993596 -1.331194E-5 
478 -5.6794 1.008949  1.868573E-5 
479 14.9214 1.000297  6.232908E-7 
480 14.3099 1.016436  3.462699E-5 
481 -1.8192 0.985418 -3.085834E-5 
482 18.2466 1.010935  2.324185E-5 
483 -19.7828 1.001260  2.690069E-6 
484 -0.7490 1.017548  3.763003E-5 
485 -19.3241 1.011135  2.398436E-5 
486 0.7034 0.998718 -2.773227E-6 
487 1.3914 0.998821 -2.561361E-6 
488 16.7560 1.005931  1.294504E-5 
489 -3.4626 0.999669 -7.248565E-7 
490 0.8945 1.031873  7.017107E-5 
491 11.2905 0.982332 -3.906696E-5 
492 -16.1518 1.016622  3.691514E-5 
493 -17.1838 0.996581 -7.625687E-6 
494 -15.3874 0.998226 -3.975095E-6 
495 -17.7189 1.017450  3.926176E-5 
496 -3.1187 1.014537  3.284944E-5 
497 -15.8843 1.005535  1.256240E-5 
498 -17.2984 1.008746  1.993428E-5 
499 -10.1130 1.014024  3.210279E-5 
500 -4.9532 1.000077  1.763463E-7 
501 -19.1712 1.014225  3.284268E-5 
502 -15.6932 1.016911  3.921171E-5 
503 -17.5660 1.018391  4.282645E-5 
504 15.0361 1.032003  7.484211E-5 
505 17.9408 1.002819  6.620112E-6 
506 15.5329 1.014819  3.495139E-5 
507 -7.5140 1.025962  6.149466E-5 
508 -1.4370 1.003099  7.371627E-6 
509 18.4377 1.007011  1.674840E-5 
510 -7.7433 1.009449  2.266690E-5 
511 -18.2539 0.993774 -1.499891E-5 
512 11.5198 0.997766 -5.404483E-6 
513 -18.1393 1.010103  2.454353E-5 
514 -0.0992 1.024818  6.054590E-5 
515 -9.7690 0.990732 -2.270342E-5 
516 -15.3492 0.987776 -3.007215E-5 
517 15.6858 1.018695  4.618290E-5 
518 8.0417 1.018737  4.648090E-5 
519 -2.1631 0.993489 -1.621951E-5 
520 15.7622 1.018111  4.530101E-5 
521 8.2710 1.014477  3.636326E-5 
522 -7.9726 1.013845  3.491912E-5 
523 1.3531 0.982372 -4.464461E-5 
524 2.3851 1.021934  5.577933E-5 
525 0.2065 1.017200  4.392272E-5 
526 -16.8780 1.008640  2.215503E-5 
527 -9.5779 0.999337 -1.707440E-6 
528 17.4822 1.001164  3.009734E-6 
529 17.6733 1.007870  2.042831E-5 
530 11.0993 1.017822  4.645141E-5 
531 0.4358 1.006299  1.648604E-5 
532 11.0993 1.016724  4.394844E-5 
533 12.7428 1.005275  1.391689E-5 
534 -10.2276 1.016094  4.263629E-5 
535 2.7673 1.009069  2.412266E-5 
536 -7.1318 0.989055 -2.923071E-5 
537 1.7736 1.020379  5.464970E-5 
538 -2.0867 1.031441  8.465304E-5 
539 12.7810 1.006319  1.708169E-5 
540 16.5649 1.021772  5.909489E-5 
541 2.8820 0.993458 -1.782881E-5 
542 -17.4895 0.998647 -3.703205E-6 
543 -16.0372 1.018097  4.971398E-5 
544 -9.2339 1.012120  3.342822E-5 
545 -12.3680 1.005362  1.484689E-5 
546 11.4433 1.014762  4.104021E-5 
547 -13.3235 1.019561  5.459910E-5 
548 12.3988 1.024269  6.800986E-5 
549 -16.4194 0.976970 -6.479291E-5 
550 16.1827 0.997599 -6.781738E-6 
551 -7.9344 0.998263 -4.926111E-6 
552 11.6344 1.009207  2.621140E-5 
553 11.6727 1.029335  8.384740E-5 
554 -19.4006 1.001777  5.097976E-6 
555 -13.3999 1.018545  5.342452E-5 
 5.050511  90.00  10.00 -0.00 0.09
  0 -0.3286 0.869384 -7.354291E-6 
  1 -1.6281 0.872563 -7.180121E-6 
  2 -6.4056 1.167302  9.435000E-6 
  3 0.8945 1.076245  4.304953E-6 
  4 0.5505 1.092204  5.213532E-6 
  5 0.6652 1.104765  5.933794E-6 
  6 0.8945 1.129505  7.349339E-6 
  7 0.8181 1.127927  7.275827E-6 
  8 0.9709 1.098163  5.596712E-6 
  9 1.1238 1.087599  5.007927E-6 
 10 0.6652 1.099833  5.724228E-6 
 11 0.2065 1.080211  4.613840E-6 
 12 0.2830 1.072449  4.181752E-6 
 13 -0.2139 1.030921  1.791333E-6 
 14 -0.3668 1.025420  1.478422E-6 
 15 -1.0547 1.020756  1.212191E-6 
 16 -2.6982 1.022162  1.300023E-6 
 17 -12.3298 1.025992  1.531756E-6 
 18 -5.9087 1.022741  1.346723E-6 
 19 -13.9733 1.017103  1.017986E-6 
 20 -5.2590 1.007824  4.681411E-7 
 21 14.3481 1.041899  2.521006E-6 
 22 -2.1249 0.992820 -4.345037E-7 
 23 -2.0867 1.009103  5.541632E-7 
 24 -4.1124 1.031645  1.938346E-6 
 25 -5.4501 1.010431  6.430080E-7 
 26 -6.2145 1.007098  4.404309E-7 
 27 10.7554 1.009017  5.632717E-7 
 28 -14.4701 1.005785  3.638972E-7 
 29 -8.5460 1.008252  5.228119E-7 
 30 -4.9150 1.022129  1.412307E-6 
 31 12.7428 1.025471  1.637833E-6 
 32 -3.6155 1.012202  7.906673E-7 
 33 1.8118 1.032093  2.095994E-6 
 34 5.5574 0.997720 -1.501345E-7 
 35 5.9014 1.008584  5.697622E-7 
 36 -6.8643 1.001001  6.697111E-8 
 37 -5.3737 1.003479  2.348494E-7 
 38 -7.4376 1.005124  3.488730E-7 
 39 -5.8705 1.045295  3.111462E-6 
 40 -4.7621 1.015023  1.041271E-6 
 41 -5.0297 1.007072  4.946193E-7 
 42 -9.9601 1.003209  2.265401E-7 
 43 -15.6550 1.027449  1.955814E-6 
 44 -7.7433 1.008302  5.971889E-7 
 45 16.6413 1.023095  1.677229E-6 
 46 0.8563 1.029356  2.152747E-6 
 47 7.0098 1.012763  9.451525E-7 
 48 12.6282 1.015009  1.122580E-6 
 49 -5.9852 1.006622  5.003205E-7 
 50 -12.1387 1.018201  1.389096E-6 
 51 -11.9476 1.010666  8.224178E-7 
 52 10.9465 1.019350  1.507466E-6 
 53 -4.2653 1.005481  4.314992E-7 
 54 8.2328 1.029299  2.330832E-6 
 55 -14.8141 1.001976  1.588617E-7 
 56 -16.8398 1.023339  1.896590E-6 
 57 -13.6675 0.992578 -6.096685E-7 
 58 4.5254 0.998277 -1.430284E-7 
 59 -4.6475 0.995008 -4.190784E-7 
 60 -13.1706 0.993634 -5.402799E-7 
 61 11.7873 1.005043  4.327327E-7 
 62 -3.8066 1.029928  2.596749E-6 
 63 -7.2082 1.015541  1.363500E-6 
 64 -6.2145 1.006494  5.761434E-7 
 65 -6.4056 1.011435  1.026025E-6 
 66 -16.4194 1.029311  2.659857E-6 
 67 -18.5979 1.008456  7.761202E-7 
 68 -14.3937 1.013357  1.239968E-6 
 69 -8.0491 1.047438  4.454236E-6 
 70 -7.8962 1.010176  9.665025E-7 
 71 -5.7941 1.040973  3.936556E-6 
 72 -7.0554 1.012239  1.189497E-6 
 73 7.5066 1.028046  2.757425E-6 
 74 18.9345 0.992450 -7.509391E-7 
 75 -18.1775 1.008101  8.151898E-7 
 76 12.6664 1.022659  2.306742E-6 
 77 -18.1011 0.996633 -3.467657E-7 
 78 -7.3229 1.019218  2.002579E-6 
 79 18.3612 1.008585  9.050744E-7 
 80 -4.1888 0.997198 -2.989212E-7 
 81 -4.1506 1.028776  3.105591E-6 
 82 8.2328 1.006870  7.502114E-7 
 83 13.7366 1.011660  1.288278E-6 
 84 7.3920 1.026492  2.961522E-6 
 85 -17.1838 1.015975  1.806864E-6 
 86 8.3857 1.011703  1.339302E-6 
 87 -17.1838 1.014154  1.638948E-6 
 88 -7.5140 1.023358  2.736783E-6 
 89 -6.0998 1.002000  2.371237E-7 
 90 12.8193 1.006353  7.620858E-7 
 91 6.0543 1.003430  4.163122E-7 
 92 18.8963 1.009436  1.158786E-6 
 93 -12.7502 1.011228  1.395098E-6 
 94 6.4365 1.001075  1.351327E-7 
 95 5.8632 0.997590 -3.065761E-7 
 96 17.4439 0.995372 -5.956537E-7 
 97 -12.5591 1.018262  2.377948E-6 
 98 -5.5648 1.041753  5.500589E-6 
 99 -5.9852 0.986259 -1.831499E-6 
100 -14.1644 0.994597 -7.285785E-7 
101 -5.1826 1.024501  3.342678E-6 
102 -8.6988 1.022129  3.054445E-6 
103 -6.7114 0.990642 -1.306833E-6 
104 -7.4758 1.020155  2.847295E-6 
105 12.6282 0.999359 -9.156817E-8 
106 -6.7878 1.002683  3.878744E-7 
107 -1.9720 1.017936  2.623232E-6 
108 -19.5152 1.011821  1.748957E-6 
109 -14.6612 1.035324  5.286619E-6 
110 -3.8448 1.013504  2.044365E-6 
111 -13.7057 1.030335  4.645417E-6 
112 8.7679 1.002012  3.116535E-7 
113 -5.1061 1.014393  2.254997E-6 
114 -18.4068 1.016356  2.591883E-6 
115 -16.5722 1.002507  4.017749E-7 
116 -18.6744 1.028681  4.649374E-6 
117 10.7171 0.996208 -6.217659E-7 
118 -0.4432 0.997541 -4.077086E-7 
119 -6.3292 0.986469 -2.269045E-6 
120 -4.0359 1.022188  3.762719E-6 
121 -9.6543 1.000812  1.392431E-7 
122 -7.7433 1.011415  1.979588E-6 
123 -6.1763 1.030005  5.261892E-6 
124 13.6601 1.006704  1.188819E-6 
125 -16.6869 1.023088  4.139861E-6 
126 -7.6287 1.018899  3.426487E-6 
127 -12.0240 1.000498  9.127385E-8 
128 -15.5785 1.017502  3.243955E-6 
129 -5.2208 1.005057  9.477110E-7 
130 -6.7496 1.003797  7.193293E-7 
131 8.4621 1.025122  4.811622E-6 
132 7.6595 1.006636  1.284968E-6 
133 -16.6105 1.009745  1.907600E-6 
134 -16.0372 1.010584  2.094233E-6 
135 15.3800 1.017262  3.452859E-6 
136 -4.7621 1.018788  3.798733E-6 
137 13.6219 1.036750  7.510643E-6 
138 11.3669 1.001817  3.754088E-7 
139 -6.9789 0.994271 -1.196033E-6 
140 8.1564 1.025035  5.282901E-6 
141 -6.7496 0.990838 -1.954010E-6 
142 -4.8003 1.019309  4.161726E-6 
143 18.0172 1.007826  1.704692E-6 
144 -6.2909 1.038439  8.461409E-6 
145 -5.2208 1.030961  6.887153E-6 
146 16.4884 0.987583 -2.791014E-6 
147 9.3412 0.994184 -1.320918E-6 
148 -12.7884 1.014967  3.434940E-6 
149 -7.1318 1.008760  2.031484E-6 
150 -4.5710 1.013900  3.256690E-6 
151 -13.7821 1.026148  6.189903E-6 
152 -5.8323 1.001130  2.701468E-7 
153 11.8638 1.020877  5.044337E-6 
154 6.0925 1.021633  5.280504E-6 
155 10.6025 1.010314  2.543250E-6 
156 -13.5146 1.021616  5.384659E-6 
157 -14.1261 1.021035  5.292898E-6 
158 7.3920 1.014275  3.628246E-6 
159 -8.7371 1.020169  5.178213E-6 
160 14.9978 1.018647  4.835478E-6 
161 -5.2208 1.009129  2.391020E-6 
162 15.1889 1.012073  3.193778E-6 
163 7.8124 1.020203  5.397596E-6 
164 7.3920 1.000964  2.602176E-7 
165 -6.6349 1.020455  5.573586E-6 
166 -17.4513 1.011990  3.299166E-6 
167 17.4822 1.024683  6.858759E-6 
168 6.7422 1.000160  4.488423E-8 
169 -4.7621 1.020352  5.766443E-6 
170 18.3230 1.003884  1.111111E-6 
171 10.7171 1.016733  4.833423E-6 
172 -9.9983 1.009001  2.625256E-6 
173 -8.6988 1.028685  8.446877E-6 
174 16.0298 1.000968  2.878072E-7 
175 -17.6424 1.011373  3.413605E-6 
176 11.3669 1.016009  4.850693E-6 
177 -7.7051 1.012012  3.674420E-6 
178 -4.0359 1.027825  8.591998E-6 
179 14.6156 1.009576  2.984836E-6 
180 12.6282 1.030073  9.462274E-6 
181 10.4878 1.015465  4.911639E-6 
182 -18.3304 1.001312  4.206447E-7 
183 -6.1763 1.022004  7.119413E-6 
184 -17.1838 0.998925 -3.509242E-7 
185 9.4559 1.019860  6.545536E-6 
186 -15.2727 0.996182 -1.269916E-6 
187 13.8512 0.994284 -1.918765E-6 
188 -1.0165 1.031442  1.065177E-5 
189 -3.1951 0.991786 -2.808229E-6 
190 18.1319 1.017924  6.183588E-6 
191 -5.6030 1.022923  7.979823E-6 
192 -16.1136 0.991720 -2.908513E-6 
193 -11.7947 1.013740  4.870124E-6 
194 11.6344 1.017686  6.324939E-6 
195 -15.8461 0.990619 -3.385115E-6 
196 -16.5340 0.996962 -1.105873E-6 
197 16.1444 1.022470  8.253594E-6 
198 15.2272 1.028223  1.045872E-5 
199 8.1564 1.004453  1.664953E-6 
200 -18.4833 1.013187  4.973502E-6 
201 10.2967 0.989122 -4.138849E-6 
202 -9.9219 1.021227  8.147038E-6 
203 -5.2208 1.001406  5.443399E-7 
204 -7.2082 0.992838 -2.797027E-6 
205 6.2071 1.010159  4.002041E-6 
206 9.2648 1.011551  4.589559E-6 
207 14.4627 1.017519  7.021150E-6 
208 -17.8335 1.013191  5.332055E-6 
209 10.4878 1.021959  8.951926E-6 
210 -6.8643 1.036437  1.498138E-5 
211 -5.8323 0.986339 -5.664878E-6 
212 -19.4770 1.018369  7.681530E-6 
213 -7.8962 1.000343  1.447039E-7 
214 -3.2715 1.025393  1.079895E-5 
215 18.1701 1.010477  4.492994E-6 
216 -4.5710 1.019658  8.501287E-6 
217 -13.8204 0.998399 -6.981244E-7 
218 -18.9419 1.035990  1.582480E-5 
219 5.1752 1.016059  7.119870E-6 
220 17.5586 0.989487 -4.699452E-6 
221 -4.8003 1.002021  9.110887E-7 
222 7.9271 1.003217  1.462060E-6 
223 10.0292 1.035044  1.605542E-5 
224 16.7178 0.992851 -3.301921E-6 
225 -6.7878 0.984526 -7.205459E-6 
226 11.9402 1.007921  3.718707E-6 
227 -14.2408 1.009020  4.268524E-6 
228 -7.0171 1.010268  4.898380E-6 
229 -6.3292 0.988337 -5.609113E-6 
230 -3.7302 0.996739 -1.580811E-6 
231 -14.6230 1.005559  2.716353E-6 
232 -0.7490 1.017143  8.443793E-6 
233 15.2272 1.026833  1.332204E-5 
234 -3.8448 1.011867  5.938284E-6 
235 9.1883 1.008405  4.239358E-6 
236 -13.5146 0.997781 -1.127903E-6 
237 -6.4820 1.008555  4.383085E-6 
238 7.0098 0.997177 -1.457758E-6 
239 -6.3674 1.016106  8.381009E-6 
240 -4.5328 1.025329  1.328349E-5 
241 -7.0554 1.007895  4.172406E-6 
242 -8.5077 1.017183  9.151584E-6 
243 -8.6224 0.998866 -6.085175E-7 
244 -3.9213 1.017791  9.622137E-6 
245 -10.4188 1.018366  1.000905E-5 
246 5.2898 0.998906 -6.009704E-7 
247 10.9847 1.019748  1.092726E-5 
248 18.8963 1.036505  2.035280E-5 
249 -11.9858 1.012565  7.058712E-6 
250 -7.6669 1.012290  6.956147E-6 
251 12.6664 1.002717  1.549394E-6 
252 -7.3229 1.016206  9.311569E-6 
253 10.2203 1.003737  2.163305E-6 
254 -5.2972 1.013768  8.029039E-6 
255 -14.4319 0.997845 -1.266000E-6 
256 -10.1894 1.019094  1.130170E-5 
257 -6.4056 1.018761  1.118640E-5 
258 -16.1900 1.010453  6.278989E-6 
259 -17.7571 1.003656  2.212406E-6 
260 11.3669 1.021617  1.317661E-5 
261 10.6025 1.012837  7.881788E-6 
262 -6.8260 0.996172 -2.367259E-6 
263 8.7297 0.998617 -8.613052E-7 
264 -5.6794 1.015844  9.942242E-6 
265 9.0354 1.020040  1.266593E-5 
266 -6.7496 1.000825  5.250040E-7 
267 -8.0491 1.018104  1.160816E-5 
268 -12.0240 0.983340 -1.075841E-5 
269 -6.9789 1.022342  1.453086E-5 
270 -17.8717 1.004660  3.052594E-6 
271 9.4559 1.003623  2.390295E-6 
272 -12.1387 1.016030  1.065010E-5 
273 -11.1449 1.013814  9.242874E-6 
274 -16.4576 1.003421  2.304737E-6 
275 -6.9407 1.027395  1.858808E-5 
276 10.8318 1.027780  1.898173E-5 
277 -5.8323 1.014212  9.778977E-6 
278 -5.5648 1.019101  1.323432E-5 
279 -14.4701 1.029567  2.062837E-5 
280 -7.5140 1.004016  2.821106E-6 
281 9.4177 1.013030  9.217434E-6 
282 -8.0109 1.004896  3.487201E-6 
283 7.0862 1.011789  8.454788E-6 
284 -14.1261 1.018481  1.334469E-5 
285 19.0110 1.027856  2.025198E-5 
286 -6.1381 1.002771  2.028042E-6 
287 -14.9288 0.985234 -1.088199E-5 
288 -11.6036 1.016691  1.238398E-5 
289 6.0160 1.003527  2.634900E-6 
290 9.5323 1.019658  1.478332E-5 
291 -12.1005 1.007864  5.953818E-6 
292 8.1946 1.017883  1.363008E-5 
293 -4.6857 1.019724  1.513353E-5 
294 -7.4758 1.017036  1.315898E-5 
295 -7.0554 1.008290  6.446102E-6 
296 -18.7508 1.003658  2.863375E-6 
297 -6.8260 1.006760  5.326460E-6 
298 8.5386 1.014992  1.189050E-5 
299 -14.3937 0.996613 -2.703658E-6 
300 -5.9470 1.018410  1.479419E-5 
301 15.9533 1.005999  4.852033E-6 
302 9.1883 1.002496  2.031691E-6 
303 -6.9407 1.021738  1.781257E-5 
304 7.5448 1.034833  2.872953E-5 
305 -7.4376 1.006622  5.496720E-6 
306 -9.0046 1.031577  2.638227E-5 
307 6.5511 0.997713 -1.922898E-6 
308 18.7817 1.007247  6.133049E-6 
309 17.7115 1.010965  9.339180E-6 
310 -12.9413 1.000894  7.661743E-7 
311 17.1382 1.000622  5.362298E-7 
312 -10.9538 1.013743  1.193073E-5 
313 -6.4820 1.015096  1.318913E-5 
314 -1.7809 1.024509  2.154802E-5 
315 14.8832 0.993286 -5.939927E-6 
316 2.9202 0.989055 -9.744430E-6 
317 -5.7941 1.006337  5.677715E-6 
318 -10.4188 1.000697  6.281370E-7 
319 14.2334 1.021682  1.967011E-5 
320 -14.3555 1.019892  1.815854E-5 
321 -7.8580 1.018523  1.701435E-5 
322 -6.2909 1.010254  9.477091E-6 
323 -7.0936 1.013190  1.226639E-5 
324 12.1313 1.016523  1.546097E-5 
325 -9.5397 1.016766  1.578528E-5 
326 -18.1775 1.004292  4.066124E-6 
327 11.9402 1.008761  8.349822E-6 
328 18.2848 1.009166  8.789310E-6 
329 -19.2095 1.019884  1.918353E-5 
330 7.0862 1.024649  2.392536E-5 
331 -14.8141 1.015207  1.485066E-5 
332 12.9339 1.026324  2.586220E-5 
333 -11.0685 1.014111  1.394772E-5 
334 8.6150 1.015618  1.553051E-5 
335 16.8324 1.014075  1.407993E-5 
336 16.7178 0.999918 -8.297494E-8 
337 12.2077 1.003981  4.030187E-6 
338 -15.5021 0.994236 -5.870082E-6 
339 3.7992 1.013946  1.428808E-5 
340 8.4621 1.021708  2.237238E-5 
341 -7.9726 1.008486  8.797795E-6 
342 -5.9087 1.016137  1.682796E-5 
343 -8.5842 1.005106  5.355919E-6 
344 9.8763 0.998919 -1.140341E-6 
345 -15.0052 1.001752  1.859325E-6 
346 -11.6036 1.005219  5.571301E-6 
347 10.3349 1.018632  2.000726E-5 
348 -13.3617 0.983400 -1.792916E-5 
349 14.3863 1.000474  5.149627E-7 
350 -4.9915 1.028358  3.098563E-5 
351 -17.8717 0.999516 -5.322663E-7 
352 -11.6036 1.006132  6.778252E-6 
353 12.8957 1.000378  4.205372E-7 
354 14.7685 1.020605  2.303897E-5 
355 9.9527 0.985894 -1.586223E-5 
356 -7.8198 1.021243  2.402514E-5 
357 -15.1963 1.020112  2.287519E-5 
358 8.9208 1.003234  3.699313E-6 
359 -1.8192 1.013994  1.609891E-5 
360 -2.4307 0.983098 -1.955420E-5 
361 -9.1193 0.995417 -5.332085E-6 
362 17.4057 1.003969  4.643861E-6 
363 14.5392 1.019243  2.264211E-5 
364 12.3988 1.027440  3.246816E-5 
365 6.7040 1.018784  2.235073E-5 
366 -7.5522 1.001024  1.224808E-6 
367 -3.8831 1.025968  3.124484E-5 
368 12.2460 1.013992  1.692921E-5 
369 -8.6606 1.015040  1.829765E-5 
370 -14.8141 1.017819  2.179948E-5 
371 -13.0177 0.988842 -1.372592E-5 
372 -18.9037 1.005526  6.834948E-6 
373 -5.1061 1.026834  3.337444E-5 
374 8.7679 1.008474  1.059766E-5 
375 17.8644 1.008959  1.126558E-5 
376 11.8638 0.989745 -1.296555E-5 
377 -5.7559 1.007632  9.702173E-6 
378 9.4559 1.007110  9.087971E-6 
379 -11.0303 0.989756 -1.316428E-5 
380 -5.5648 0.995473 -5.849228E-6 
381 -8.0109 1.009562  1.242098E-5 
382 8.9208 0.999428 -7.475865E-7 
383 12.7428 0.996320 -4.832038E-6 
384 10.4496 1.022777  3.006963E-5 
385 9.2265 1.021608  2.867913E-5 
386 10.7554 0.999091 -1.212543E-6 
387 9.1883 1.011318  1.518303E-5 
388 9.9145 1.018359  2.475921E-5 
389 -12.3298 1.028183  3.821032E-5 
390 -17.9864 1.008465  1.153841E-5 
391 -7.2465 1.029840  4.088743E-5 
392 -8.0109 1.017074  2.351919E-5 
393 -4.7621 1.012303  1.703663E-5 
394 -5.4119 1.017046  2.372878E-5 
395 11.5962 1.007095  9.928257E-6 
396 8.6150 1.013025  1.832128E-5 
397 -5.8705 1.024430  3.454411E-5 
398 14.8067 1.028935  4.112743E-5 
399 4.9459 0.997782 -3.169071E-6 
400 -6.1763 1.028150  4.042944E-5 
401 -7.3229 1.001915  2.763930E-6 
402 8.6150 1.000412  5.985419E-7 
403 -5.2972 1.015576  2.271914E-5 
404 -15.6550 1.013763  2.017779E-5 
405 -6.8643 1.001691  2.492288E-6 
406 11.7109 1.002731  4.044922E-6 
407 14.6921 1.003892  5.794625E-6 
408 10.8700 1.007230  1.081897E-5 
409 -5.1826 1.003165  4.760508E-6 
410 11.9402 0.989400 -1.602370E-5 
411 -17.7571 1.010802  1.641274E-5 
412 15.6476 1.034682  5.296245E-5 
413 -7.2847 1.011070  1.699081E-5 
414 18.9345 1.013787  2.126788E-5 
415 -6.2527 1.003254  5.044442E-6 
416 5.6338 0.997917 -3.244974E-6 
417 -6.0616 1.011108  1.739529E-5 
418 -5.4883 1.001391  2.189016E-6 
419 7.7742 0.999318 -1.077965E-6 
420 -6.2145 0.999226 -1.230952E-6 
421 -7.3993 0.997286 -4.335695E-6 
422 -6.1381 1.011222  1.801553E-5 
423 -5.0679 1.014813  2.389923E-5 
424 -4.7621 1.008192  1.328273E-5 
425 -5.4883 1.026490  4.316192E-5 
426 -0.9401 1.002566  4.200905E-6 
427 -10.8774 1.013591  2.236253E-5 
428 -6.6349 1.046016  7.608822E-5 
429 -5.0297 1.005965  9.911491E-6 
430 -5.9087 1.016336  2.727705E-5 
431 -8.1637 1.016862  2.829278E-5 
432 -16.6105 1.023456  3.954815E-5 
433 -6.9407 1.024218  4.103133E-5 
434 14.6538 1.034373  5.851926E-5 
435 -14.7377 1.019285  3.299161E-5 
436 -15.6550 1.024092  4.141364E-5 
437 7.8888 1.022451  3.877957E-5 
438 -11.2214 1.022492  3.903757E-5 
439 11.9020 0.997213 -4.861121E-6 
440 -11.5271 1.011280  1.976665E-5 
441 -11.9858 0.994424 -9.817824E-6 
442 -6.7878 1.002218  3.924066E-6 
443 -19.7445 0.997701 -4.086668E-6 
444 0.5123 0.991226 -1.566966E-5 
445 13.1250 0.983113 -3.030230E-5 
446 -8.9664 1.009687  1.746546E-5 
447 -5.7559 1.013515  2.448323E-5 
448 -4.8386 1.001433  2.607696E-6 
449 -9.8454 1.002318  4.239269E-6 
450 7.2391 1.020792  3.819971E-5 
451 9.6470 1.016717  3.085792E-5 
452 8.9972 1.004841  8.977220E-6 
453 -18.4833 1.006736  1.255043E-5 
454 13.9659 1.016669  3.120211E-5 
455 -5.1826 1.002468  4.641957E-6 
456 9.8763 1.019740  3.729712E-5 
457 8.1182 1.018284  3.470683E-5 
458 -9.5779 1.002853  5.440070E-6 
459 -17.4895 1.008582  1.644115E-5 
460 -9.2721 0.990621 -1.805043E-5 
461 10.1821 1.008856  1.712280E-5 
462 -4.0742 1.027640  5.368835E-5 
463 5.3281 1.017056  3.328097E-5 
464 -7.6287 1.006183  1.212002E-5 
465 -17.7189 1.020477  4.032462E-5 
466 -5.4119 1.027411  5.422607E-5 
467 12.5517 1.001526  3.033186E-6 
468 11.9402 0.998387 -3.220416E-6 
469 -16.0754 1.021667  4.344962E-5 
470 9.6852 1.023821  4.798709E-5 
471 -8.3931 0.998957 -2.111596E-6 
472 -6.2145 0.995529 -9.087850E-6 
473 11.2522 0.998475 -3.114554E-6 
474 -4.2653 1.010874  2.230328E-5 
475 11.5580 1.012196  2.512709E-5 
476 7.7360 1.014779  3.058686E-5 
477 -14.4319 1.007582  1.576137E-5 
478 -6.4820 1.005650  1.179888E-5 
479 15.0361 1.003195  6.700407E-6 
480 12.0549 1.008172  1.721616E-5 
481 -8.3548 1.024967  5.283469E-5 
482 -8.2402 1.014743  3.133761E-5 
483 -11.7947 1.001314  2.805030E-6 
484 -4.4564 1.006602  1.415776E-5 
485 9.7999 1.004943  1.064617E-5 
486 -3.9595 1.003652  7.899638E-6 
487 9.7234 1.030195  6.560994E-5 
488 12.0549 1.002605  5.685168E-6 
489 -5.4883 1.020992  4.601368E-5 
490 -8.3548 1.035261  7.763057E-5 
491 -3.0804 1.019192  4.243672E-5 
492 -9.0428 1.005913  1.313155E-5 
493 -12.0622 1.021237  4.736959E-5 
494 -13.1706 1.022562  5.054321E-5 
495 -6.1763 1.036231  8.151743E-5 
496 -4.1888 1.010725  2.423643E-5 
497 -17.0309 1.002261  5.131796E-6 
498 -3.2333 1.015641  3.565125E-5 
499 -4.7621 1.017268  3.952719E-5 
500 -14.2408 1.026850  6.172784E-5 
501 -6.0616 1.018864  4.355482E-5 
502 11.8255 1.010394  2.409994E-5 
503 -8.4313 1.017195  4.004028E-5 
504 10.7936 1.015676  3.665958E-5 
505 13.5455 1.020702  4.861983E-5 
506 -7.3229 1.011515  2.716018E-5 
507 14.5774 1.019221  4.552753E-5 
508 -5.4119 1.016222  3.858761E-5 
509 -16.5340 1.011542  2.757178E-5 
510 -15.5403 1.004644  1.113966E-5 
511 -11.9476 0.989308 -2.575699E-5 
512 -7.6287 1.013869  3.355024E-5 
513 -5.0297 1.010204  2.478961E-5 
514 -8.8135 1.004585  1.118552E-5 
515 -6.9789 0.999960 -9.820161E-8 
516 10.7171 1.031462  7.739928E-5 
517 -8.1637 1.021720  5.365613E-5 
518 -5.1826 0.993441 -1.626991E-5 
519 15.6476 1.018283  4.554321E-5 
520 -5.8323 1.017494  4.375818E-5 
521 14.0805 1.010277  2.581354E-5 
522 6.8569 0.984954 -3.794757E-5 
523 11.9402 1.003052  7.730615E-6 
524 11.9020 1.012369  3.145669E-5 
525 -4.7621 1.020748  5.298176E-5 
526 2.4233 1.001991  5.106007E-6 
527 8.4621 0.999254 -1.920094E-6 
528 -6.9789 1.014831  3.834291E-5 
529 5.3281 1.031987  8.303241E-5 
530 9.1883 1.025848  6.737116E-5 
531 -5.4883 1.000934  2.445104E-6 
532 11.7491 1.013944  3.664235E-5 
533 -15.6932 1.010869  2.867700E-5 
534 -4.9532 1.034195  9.058988E-5 
535 -13.1324 1.008189  2.178215E-5 
536 -15.6932 0.990789 -2.460143E-5 
537 -11.0303 1.013891  3.724933E-5 
538 -14.5848 1.016045  4.320047E-5 
539 -6.7114 1.008060  2.178867E-5 
540 7.2773 0.994819 -1.406187E-5 
541 11.3669 1.007994  2.178445E-5 
542 -10.6099 0.999238 -2.084203E-6 
543 -17.5278 1.015548  4.271137E-5 
544 -3.8448 1.019114  5.271721E-5 
545 -12.1005 1.007037  1.948670E-5 
546 -6.6349 1.017266  4.800083E-5 
547 -18.7890 1.013452  3.754686E-5 
548 7.2773 1.004513  1.264595E-5 
549 -11.5271 1.002895  8.144649E-6 
550 -1.9338 1.001084  3.061180E-6 
551 12.8575 1.017185  4.873456E-5 
552 -14.2408 0.986250 -3.914659E-5 
553 10.9082 1.009253  2.644848E-5 
554 6.5511 1.000464  1.331635E-6 
555 -4.4564 1.010819  3.116908E-5 
