Filename:	Wind_Profile_100_20181024_063955.hpl
System ID:	100
Number of gates:	556
Range gate length (m):	18.0
Gate length (pts):	6
Pulses/ray:	1500
No. of rays in file:	3
Scan type:	Wind profile
Focus range:	65535
Start time:	20181024 06:40:02.51
Resolution (m/s):	0.0382
Altitude of measurement (center of gate) = (range gate + 0.5) * Gate length
Data line 1: Decimal time (hours)  Azimuth (degrees)  Elevation (degrees) Pitch (degrees) Roll (degrees)
f9.6,1x,f6.2,1x,f6.2
Data line 2: Range Gate  Doppler (m/s)  Intensity (SNR + 1)  Beta (m-1 sr-1)
i3,1x,f6.4,1x,f8.6,1x,e12.6 - repeat for no. gates
****
 6.667336  91.00  90.00 -0.00 0.09
  0 0.0919 0.981392 -1.047740E-6
  1 -0.8254 0.985706 -8.053797E-7
  2 -7.6669 1.038126  2.150092E-6
  3 1.2385 1.009575  5.405998E-7
  4 0.4741 1.024603  1.391142E-6
  5 -0.2139 1.044309  2.509599E-6
  6 0.5505 1.019668  1.116177E-6
  7 0.6652 1.004527  2.574946E-7
  8 -19.3623 1.005386  3.070855E-7
  9 -9.0810 1.024088  1.377064E-6
 10 19.0110 1.013206  7.571823E-7
 11 4.6783 1.011159  6.418881E-7
 12 -0.8636 1.020975  1.210645E-6
 13 -9.3486 1.028712  1.663369E-6
 14 0.8945 1.010181  5.921460E-7
 15 1.2003 1.000569  3.325949E-8
 16 -0.3668 1.016008  9.390401E-7
 17 18.1319 1.024394  1.437592E-6
 18 1.2767 0.998999 -5.928009E-8
 19 18.3612 1.008860  5.273473E-7
 20 -16.1136 1.021240  1.270942E-6
 21 0.7798 1.003634  2.186590E-7
 22 1.9264 1.001651  9.991705E-8
 23 1.5442 1.019650  1.196237E-6
 24 0.1301 1.021867  1.339423E-6
 25 1.6971 1.006947  4.282451E-7
 26 -18.6744 1.014926  9.261106E-7
 27 -7.0554 1.025573  1.597567E-6
 28 1.0092 0.993608 -4.021090E-7
 29 1.6589 1.010934  6.927561E-7
 30 0.7416 1.012864  8.209834E-7
 31 0.7416 1.023239  1.494341E-6
 32 0.2447 1.019181  1.242925E-6
 33 -0.2521 1.024279  1.585677E-6
 34 1.1238 1.002673  1.759781E-7
 35 -0.1757 1.022674  1.505043E-6
 36 -0.0610 1.036082  2.415077E-6
 37 4.1432 1.003232  2.181872E-7
 38 1.5060 1.009014  6.137643E-7
 39 -2.6218 1.001847  1.268589E-7
 40 18.2466 1.004452  3.085649E-7
 41 18.2083 1.016170  1.130950E-6
 42 16.2973 1.012326  8.700756E-7
 43 -2.6982 0.997206 -1.991073E-7
 44 3.6081 1.025586  1.840428E-6
 45 18.9728 1.017559  1.275217E-6
 46 -8.0491 0.993065 -5.085372E-7
 47 4.6019 1.010921  8.087256E-7
 48 14.9596 1.012358  9.243118E-7
 49 -1.8956 1.019371  1.463452E-6
 50 3.4553 0.988953 -8.431270E-7
 51 -18.1393 1.012840  9.899901E-7
 52 0.0154 1.014551  1.133590E-6
 53 -19.5534 1.007149  5.627994E-7
 54 17.6350 1.044396  3.531839E-6
 55 2.4615 1.007908  6.358019E-7
 56 18.8199 1.011824  9.608853E-7
 57 5.0987 1.008363  6.869352E-7
 58 -2.2014 1.008578  7.122936E-7
 59 18.8963 1.006775  5.687326E-7
 60 18.5906 1.008180  6.942099E-7
 61 -8.2784 0.997950 -1.759272E-7
 62 -19.7063 1.028430  2.466775E-6
 63 2.1558 0.991104 -7.805444E-7
 64 -7.2847 0.987337 -1.123495E-6
 65 2.6526 1.012266  1.100642E-6
 66 -18.7890 1.032928  2.988071E-6
 67 -19.3241 1.010353  9.502390E-7
 68 -12.3298 1.014197  1.317939E-6
 69 19.1256 1.035156  3.301065E-6
 70 17.1764 1.017390  1.651650E-6
 71 -19.3623 1.013114  1.259961E-6
 72 18.5523 1.012368  1.201997E-6
 73 6.1689 1.003443  3.384645E-7
 74 -7.4376 1.000509  5.064854E-8
 75 19.1256 1.017894  1.800513E-6
 76 -18.0628 1.012716  1.294445E-6
 77 1.5825 1.012230  1.259588E-6
 78 -19.8210 1.004435  4.621702E-7
 79 5.8249 0.997841 -2.276035E-7
 80 2.1940 0.988139 -1.265128E-6
 81 -17.1073 1.019154  2.067106E-6
 82 5.0987 1.006098  6.658167E-7
 83 18.7434 1.018794  2.076470E-6
 84 1.2767 1.020819  2.327329E-6
 85 18.5141 1.005743  6.495940E-7
 86 -19.3241 1.004643  5.313664E-7
 87 -18.7508 1.011838  1.370852E-6
 88 -7.5140 0.998321 -1.966663E-7
 89 -6.9407 0.986056 -1.653038E-6
 90 6.2071 1.010152  1.217767E-6
 91 -3.8831 1.004338  5.264822E-7
 92 18.6288 1.009957  1.222705E-6
 93 -18.7126 0.999171 -1.029991E-7
 94 -18.7890 1.013720  1.724807E-6
 95 1.3149 1.005717  7.272060E-7
 96 -19.1330 0.988321 -1.503067E-6
 97 18.0937 1.020689  2.693991E-6
 98 17.0235 1.018973  2.499479E-6
 99 -2.0485 0.998011 -2.650791E-7
100 18.6288 1.009024  1.216960E-6
101 1.7736 0.989370 -1.450309E-6
102 2.8437 1.017798  2.456666E-6
103 -0.7872 0.999509 -6.855044E-8
104 17.2911 1.013198  1.864477E-6
105 6.8951 0.994253 -8.214045E-7
106 -19.5917 1.014511  2.098018E-6
107 18.6670 1.021083  3.083517E-6
108 17.6733 1.007869  1.164213E-6
109 4.3726 1.017815  2.666262E-6
110 -19.8210 1.006039  9.143045E-7
111 -9.5779 1.009978  1.528048E-6
112 -19.7828 1.005991  9.279417E-7
113 17.3293 1.014659  2.296626E-6
114 -7.8580 1.011135  1.764525E-6
115 -18.4833 0.994779 -8.367636E-7
116 4.5254 1.020940  3.394476E-6
117 18.4759 1.009209  1.509889E-6
118 -18.8655 0.999519 -7.982483E-8
119 -6.6732 1.013668  2.291931E-6
120 -19.4388 1.037707  6.394566E-6
121 -19.9356 1.013816  2.369463E-6
122 2.9584 1.007279  1.262351E-6
123 18.7817 1.002968  5.204146E-7
124 18.0937 1.009137  1.620265E-6
125 -7.0171 0.997759 -4.018235E-7
126 -18.3686 1.009047  1.640344E-6
127 -14.4319 1.004204  7.706362E-7
128 -19.2859 1.026178  4.851942E-6
129 -18.5215 1.003250  6.089339E-7
130 -16.8780 1.005663  1.072934E-6
131 0.8563 0.999597 -7.718496E-8
132 4.8312 1.021424  4.148357E-6
133 18.4377 1.023297  4.560314E-6
134 -19.0948 1.000214  4.232767E-8
135 19.0110 0.998707 -2.586632E-7
136 -9.0428 1.018327  3.705564E-6
137 4.3726 1.014861  3.037209E-6
138 5.8249 1.011218  2.317195E-6
139 1.6589 1.027047  5.647095E-6
140 3.5699 0.992396 -1.604677E-6
141 3.3406 0.995333 -9.953539E-7
142 -1.8192 1.024081  5.190384E-6
143 -19.2095 0.989197 -2.353076E-6
144 -18.7890 1.023587  5.191967E-6
145 10.7554 1.005338  1.187474E-6
146 -7.9344 1.001395  3.136028E-7
147 18.8581 1.000837  1.901596E-7
148 19.0492 1.015492  3.555601E-6
149 -7.8198 1.028220  6.544135E-6
150 1.2003 1.010059  2.356926E-6
151 -7.6287 1.015958  3.777568E-6
152 6.6276 1.018335  4.384949E-6
153 -19.5152 1.016624  4.016768E-6
154 -7.9344 1.019049  4.649764E-6
155 1.9264 1.010568  2.605955E-6
156 -8.6988 1.008144  2.028560E-6
157 7.3155 1.001299  3.268733E-7
158 18.9345 1.025718  6.536750E-6
159 16.6031 1.013608  3.493721E-6
160 3.2259 0.999141 -2.227128E-7
161 -18.7508 1.002466  6.458066E-7
162 -1.0165 1.022406  5.926982E-6
163 3.9521 1.017538  4.685484E-6
164 18.2083 0.987103 -3.479733E-6
165 2.3469 1.009293  2.532149E-6
166 1.0092 1.007742  2.130333E-6
167 -8.9282 1.003331  9.254656E-7
168 3.4935 0.996851 -8.835327E-7
169 -17.9482 0.999573 -1.211243E-7
170 17.6350 1.013941  3.988362E-6
171 1.5442 1.016436  4.747724E-6
172 -18.9419 1.004320  1.259930E-6
173 1.0856 1.016759  4.934980E-6
174 5.0605 1.002250  6.689694E-7
175 -19.9356 0.991826 -2.453274E-6
176 -6.4056 1.007156  2.168249E-6
177 17.5204 1.020191  6.176218E-6
178 -19.6681 0.998860 -3.518751E-7
179 -19.5152 0.997581 -7.539407E-7
180 3.1877 1.009694  3.050197E-6
181 17.8644 1.005083  1.614177E-6
182 -4.3799 1.000039  1.248334E-8
183 3.0731 0.997033 -9.598724E-7
184 -8.5460 0.999644 -1.162576E-7
185 1.9264 1.014114  4.651796E-6
186 19.0110 1.003436  1.143021E-6
187 -19.8974 0.970385 -9.941647E-6
188 -19.0183 1.018317  6.205330E-6
189 0.8181 1.007144  2.442302E-6
190 -10.1130 1.025720  8.873022E-6
191 16.7560 1.016680  5.806538E-6
192 -18.2539 1.003516  1.235138E-6
193 1.1620 1.020975  7.434570E-6
194 1.7353 1.018135  6.485701E-6
195 4.3343 1.025391  9.162215E-6
196 2.6526 0.997776 -8.096156E-7
197 2.4233 1.015347  5.637064E-6
198 18.5906 1.030355  1.124862E-5
199 2.5762 1.014549  5.439181E-6
200 1.6207 1.014973  5.647283E-6
201 -19.6299 1.009965  3.791241E-6
202 -1.9720 0.988937 -4.245991E-6
203 -18.7508 1.010596  4.102279E-6
204 17.1382 1.003931  1.535262E-6
205 -18.6744 1.003010  1.185843E-6
206 -7.1318 1.032247  1.281271E-5
207 -8.3931 1.003149  1.261883E-6
208 3.9521 1.005207  2.104535E-6
209 19.1256 1.017509  7.137902E-6
210 1.3914 1.011335  4.660586E-6
211 18.2466 1.006746  2.797469E-6
212 18.6670 1.003769  1.576020E-6
213 1.3149 1.011471  4.837487E-6
214 5.7103 1.007146  3.039056E-6
215 -0.7490 1.018105  7.764659E-6
216 4.9076 0.997247 -1.190757E-6
217 3.5317 1.007558  3.295865E-6
218 4.4490 1.008539  3.754445E-6
219 -19.0948 1.007863  3.486319E-6
220 0.2065 0.985455 -6.501871E-6
221 7.5066 0.973960 -1.173653E-5
222 1.6207 1.009301  4.226697E-6
223 -19.1330 1.026444  1.211531E-5
224 -8.4313 0.991599 -3.880580E-6
225 -5.7176 0.985692 -6.662807E-6
226 -6.6349 1.015599  7.322854E-6
227 -16.7251 0.992901 -3.359764E-6
228 19.0492 1.008884  4.238558E-6
229 2.8055 0.996676 -1.598325E-6
230 2.4233 1.005631  2.729629E-6
231 -19.9739 1.008054  3.935794E-6
232 -3.8066 1.021298  1.049047E-5
233 -0.1757 1.024956  1.238976E-5
234 1.4296 1.004829  2.416503E-6
235 -0.5961 1.018331  9.245263E-6
236 19.0492 1.012542  6.375748E-6
237 -18.5979 1.024926  1.277060E-5
238 -9.4632 1.008680  4.482120E-6
239 18.2083 1.042617  2.217687E-5
240 19.0110 1.003654  1.916008E-6
241 -8.5077 0.999008 -5.243106E-7
242 3.4935 1.002297  1.223146E-6
243 -17.4131 1.027050  1.451782E-5
244 -19.8210 1.002775  1.500565E-6
245 -19.9356 1.015526  8.461576E-6
246 -8.2402 1.021885  1.201800E-5
247 1.8118 1.006493  3.592959E-6
248 0.6270 1.007979  4.448710E-6
249 -1.7045 1.002913  1.636221E-6
250 -18.8272 1.008729  4.940753E-6
251 16.2209 1.018600  1.060718E-5
252 -8.5460 1.009117  5.238416E-6
253 -19.7828 0.993147 -3.966916E-6
254 18.3612 1.021418  1.249065E-5
255 -9.4632 1.007427  4.363816E-6
256 18.7434 0.972185 -1.646332E-5
257 -8.0109 1.006867  4.094556E-6
258 3.6464 1.006877  4.130657E-6
259 -6.7114 1.014807  8.959401E-6
260 16.7178 1.017311  1.055144E-5
261 -19.1330 1.003894  2.391100E-6
262 17.7879 1.009844  6.088321E-6
263 18.4759 1.010123  6.306371E-6
264 -19.8210 1.033182  2.082173E-5
265 2.3851 0.994813 -3.278087E-6
266 15.8005 0.985010 -9.542394E-6
267 -3.4244 1.003686  2.363593E-6
268 4.0668 1.000551  3.557827E-7
269 3.2259 1.028591  1.859544E-5
270 -6.0998 1.001325  8.676203E-7
271 18.2466 1.000557  3.672065E-7
272 18.7052 1.014438  9.592315E-6
273 -19.5534 1.009805  6.560479E-6
274 -18.5215 1.012189  8.212597E-6
275 18.8963 1.017643  1.197149E-5
276 16.4502 0.992752 -4.952411E-6
277 -19.1712 0.995603 -3.025471E-6
278 -19.3241 1.009391  6.506465E-6
279 -0.2139 1.013890  9.690847E-6
280 -19.4006 0.998764 -8.680945E-7
281 1.0092 0.982282 -1.253313E-5
282 3.3788 1.015037  1.071044E-5
283 -19.2859 1.007222  5.179263E-6
284 -5.6794 1.011174  8.068456E-6
285 -18.6361 1.010841  7.881643E-6
286 0.8945 0.999831 -1.239267E-7
287 17.6733 0.993243 -4.980028E-6
288 6.9715 1.017955  1.332167E-5
289 6.2836 1.003975  2.969279E-6
290 0.9709 1.029223  2.197658E-5
291 -19.4388 1.014539  1.100729E-5
292 -19.0183 1.019340  1.474081E-5
293 0.4358 1.011175  8.574611E-6
294 3.9903 1.006776  5.233438E-6
295 -19.7828 0.987680 -9.579306E-6
296 18.7817 1.021025  1.645624E-5
297 18.8963 1.022408  1.765506E-5
298 -8.7371 1.022575  1.790395E-5
299 -18.2922 0.996474 -2.814649E-6
300 2.4998 1.015150  1.217407E-5
301 17.7497 1.021751  1.759336E-5
302 16.2209 1.017048  1.387900E-5
303 6.8569 1.010669  8.742686E-6
304 18.7052 1.002225  1.835374E-6
305 -18.3686 1.016069  1.333953E-5
306 0.7798 1.003719  3.107436E-6
307 3.0348 1.008134  6.839713E-6
308 2.0411 1.019688  1.666176E-5
309 -7.3611 0.994297 -4.857035E-6
310 2.2322 1.039302  3.368881E-5
311 -19.8592 1.007603  6.558987E-6
312 6.5129 1.003168  2.750653E-6
313 -19.7063 1.007573  6.615972E-6
314 3.9139 1.035433  3.115306E-5
315 -18.4068 1.010149  8.979694E-6
316 -9.9601 1.012538  1.116325E-5
317 -19.1712 1.005352  4.794855E-6
318 -18.4833 1.005212  4.699004E-6
319 3.3024 1.014343  1.301206E-5
320 17.9026 1.024644  2.249665E-5
321 -18.0246 1.016149  1.483392E-5
322 4.1432 1.002445  2.260047E-6
323 6.5511 1.011575  1.076410E-5
324 18.8199 0.995048 -4.634166E-6
325 1.8500 1.014284  1.344849E-5
326 -18.1393 0.997545 -2.325744E-6
327 -19.5534 0.998184 -1.730966E-6
328 3.0731 0.988309 -1.121127E-5
329 -18.8655 1.012668  1.222167E-5
330 -3.9213 1.012581  1.221187E-5
331 -8.0491 1.001671  1.631404E-6
332 18.8963 1.006443  6.330510E-6
333 -4.7239 0.994726 -5.213168E-6
334 -19.0948 1.008700  8.650937E-6
335 3.9521 1.026287  2.629589E-5
336 5.1370 1.008094  8.145400E-6
337 -7.2465 0.991289 -8.818476E-6
338 19.1256 1.000735  7.484697E-7
339 -18.7126 1.013309  1.363518E-5
340 4.2579 1.011612  1.196759E-5
341 0.6270 1.011358  1.177459E-5
342 0.8563 1.027605  2.878680E-5
343 -9.7690 1.002259  2.369165E-6
344 4.1815 0.984232 -1.663816E-5
345 18.2466 0.998110 -2.006116E-6
346 -18.8272 1.013392  1.429700E-5
347 -19.9739 1.012190  1.309007E-5
348 -18.6744 1.027110  2.928027E-5
349 3.9139 1.023345  2.536097E-5
350 -8.0109 1.009629  1.052169E-5
351 -19.4388 1.014748  1.620783E-5
352 -18.6361 0.990204 -1.082825E-5
353 -8.6224 1.002450  2.723238E-6
354 3.4935 1.019301  2.158021E-5
355 0.8945 1.017094  1.922247E-5
356 18.9345 1.009768  1.104734E-5
357 19.0874 1.014606  1.661353E-5
358 -8.6224 1.011364  1.299930E-5
359 1.1620 1.002390  2.748950E-6
360 -17.2220 1.000760  8.795797E-7
361 4.0668 1.019690  2.290884E-5
362 -7.1318 1.011344  1.327284E-5
363 -1.0165 1.022431  2.639338E-5
364 -19.6299 1.015663  1.853357E-5
365 -19.9739 0.989381 -1.263539E-5
366 0.5505 0.985554 -1.728452E-5
367 18.8199 1.002984  3.590325E-6
368 17.7879 1.024860  3.007797E-5
369 2.2322 0.995264 -5.761448E-6
370 2.0411 1.014462  1.769296E-5
371 1.0856 1.000843  1.036622E-6
372 1.7736 1.004814  5.954843E-6
373 2.8437 1.012911  1.605776E-5
374 17.6733 1.027042  3.381766E-5
375 3.2642 1.003657  4.598109E-6
376 18.7052 1.007481  9.458595E-6
377 -17.2984 1.002820  3.585170E-6
378 17.2528 1.013878  1.773872E-5
379 18.8199 0.989733 -1.319438E-5
380 4.6401 0.999302 -9.021023E-7
381 -19.3241 1.010139  1.317155E-5
382 -4.4564 1.005878  7.677005E-6
383 17.4822 1.023466  3.081373E-5
384 2.2704 1.018563  2.450681E-5
385 3.7228 1.009472  1.257176E-5
386 1.1238 1.000257  3.434880E-7
387 -8.0873 1.010535  1.413268E-5
388 18.2083 1.010888  1.468377E-5
389 -18.4068 1.014523  1.969024E-5
390 18.3230 1.004755  6.481575E-6
391 1.1238 1.009105  1.247544E-5
392 9.4559 1.009001  1.239895E-5
393 17.9790 1.020975  2.904428E-5
394 -8.9282 1.030139  4.195417E-5
395 3.6846 1.001773  2.480418E-6
396 -10.4952 1.019187  2.698899E-5
397 18.8963 1.002088  2.952285E-6
398 -19.8592 1.017352  2.466363E-5
399 17.5968 0.988597 -1.629218E-5
400 2.1558 0.998902 -1.576947E-6
401 12.0931 1.009104  1.314290E-5
402 18.2848 1.027865  4.043542E-5
403 -18.7508 1.011503  1.677858E-5
404 0.0154 1.004566  6.694328E-6
405 2.1940 1.018538  2.731889E-5
406 -0.1757 0.981969 -2.670830E-5
407 -19.0183 1.008018  1.193759E-5
408 1.8118 1.024631  3.685904E-5
409 2.4615 1.002079  3.126519E-6
410 17.6733 1.028302  4.278472E-5
411 1.5060 0.999985 -2.225496E-8
412 -19.4006 1.000069  1.057614E-7
413 -17.5660 1.003130  4.804269E-6
414 1.7736 1.017441  2.690332E-5
415 -18.7890 1.005999  9.300387E-6
416 -19.8592 1.004686  7.301156E-6
417 -7.6287 1.028105  4.401128E-5
418 -17.5660 1.018047  2.840142E-5
419 -0.9783 1.018083  2.860151E-5
420 -18.2539 1.002482  3.945030E-6
421 15.0361 0.999986 -2.238493E-8
422 -18.5979 1.010578  1.698229E-5
423 -19.4006 0.997666 -3.765396E-6
424 17.2528 0.996196 -6.167886E-6
425 2.8055 1.023066  3.758309E-5
426 17.9408 1.012796  2.095185E-5
427 14.2716 0.986973 -2.143476E-5
428 2.1175 1.010090  1.668383E-5
429 -17.4131 0.992564 -1.235591E-5
430 0.3212 1.018080  3.018814E-5
431 -18.1775 1.017421  2.923071E-5
432 3.2642 1.018602  3.136368E-5
433 5.0605 1.001893  3.206809E-6
434 -0.4814 1.014663  2.496295E-5
435 18.6670 1.014981  2.562785E-5
436 2.3851 1.018469  3.174795E-5
437 3.1495 1.002378  4.106744E-6
438 4.8694 1.021709  3.767832E-5
439 -9.1957 1.015533  2.708797E-5
440 -18.9419 1.008540  1.496411E-5
441 5.0605 1.016490  2.903437E-5
442 -19.8592 0.991334 -1.533013E-5
443 -18.1775 1.017465  3.104496E-5
444 -19.7828 1.026220  4.682839E-5
445 -18.1393 1.008030  1.440904E-5
446 2.9202 1.025633  4.621549E-5
447 19.1256 1.005972  1.081750E-5
448 17.8644 1.012475  2.270442E-5
449 18.1319 1.027075  4.951070E-5
450 1.9647 1.003316  6.092867E-6
451 -17.0309 1.004928  9.097237E-6
452 18.5906 0.998744 -2.329422E-6
453 -19.9356 0.998010 -3.708174E-6
454 2.5762 1.004131  7.732113E-6
455 2.2704 1.039842  7.492723E-5
456 -19.5917 1.009622  1.817921E-5
457 17.5968 1.016154  3.066320E-5
458 0.5887 1.004020  7.666493E-6
459 0.8563 1.006198  1.187321E-5
460 -8.4695 1.007188  1.383438E-5
461 -17.6424 0.999486 -9.941277E-7
462 -18.7508 1.019422  3.772596E-5
463 3.5317 1.012791  2.495924E-5
464 1.4296 1.014510  2.844317E-5
465 16.5649 0.991535 -1.667009E-5
466 2.0793 1.003965  7.844148E-6
467 10.0674 0.992381 -1.514061E-5
468 5.5574 1.018002  3.593822E-5
469 -7.6287 1.011034  2.212718E-5
470 17.7115 0.987319 -2.554466E-5
471 7.2009 1.006297  1.274236E-5
472 6.5129 0.992093 -1.607275E-5
473 2.2322 1.010053  2.052775E-5
474 -16.4576 0.995156 -9.935760E-6
475 18.8199 0.999729 -5.581765E-7
476 19.0110 1.002733  5.656368E-6
477 17.3675 1.020258  4.211238E-5
478 2.4615 0.991174 -1.842928E-5
479 0.3212 1.023556  4.940785E-5
480 16.2973 1.018144  3.822558E-5
481 -18.4068 0.989686 -2.182583E-5
482 -19.1712 1.015870  3.373242E-5
483 18.1319 1.014451  3.085176E-5
484 7.0098 1.033545  7.193428E-5
485 3.1113 1.016798  3.618121E-5
486 3.0348 1.001994  4.313333E-6
487 -9.9983 1.004111  8.932797E-6
488 -18.4068 1.006455  1.408759E-5
489 1.5060 1.000879  1.926005E-6
490 1.5060 1.018955  4.173184E-5
491 16.9089 1.003052  6.748523E-6
492 17.3675 1.000962  2.136366E-6
493 -2.3925 1.014707  3.280548E-5
494 -18.3686 1.024338  5.452280E-5
495 -8.4695 1.027711  6.234876E-5
496 18.8199 1.022896  5.173767E-5
497 18.7434 1.000704  1.597779E-6
498 -19.8210 0.999957 -9.735062E-8
499 16.9471 1.015886  3.636570E-5
500 -19.8974 1.012776  2.937247E-5
501 18.4759 1.013841  3.195575E-5
502 5.5192 1.001029  2.386412E-6
503 -19.8210 1.025279  5.886684E-5
504 -8.8135 0.990134 -2.307353E-5
505 -9.7308 1.029461  6.919242E-5
506 3.1113 1.019407  4.577235E-5
507 18.5141 1.020315  4.811918E-5
508 2.7673 1.038236  9.095105E-5
509 -3.6537 1.005088  1.215335E-5
510 -5.4119 0.992940 -1.693638E-5
511 -8.0491 0.994596 -1.301906E-5
512 3.7992 0.995392 -1.114796E-5
513 -18.5597 1.006098  1.481494E-5
514 18.3230 1.021496  5.244014E-5
515 -19.4006 0.995213 -1.172815E-5
516 18.5906 1.013372  3.289492E-5
517 7.6595 1.008110  2.003389E-5
518 -8.6606 1.001423  3.530494E-6
519 16.4120 1.018314  4.562088E-5
520 18.3612 1.033729  8.436816E-5
521 0.6270 1.001951  4.899802E-6
522 -18.9419 1.000365  9.198934E-7
523 1.4296 0.994697 -1.343107E-5
524 -18.4068 1.007251  1.843962E-5
525 -19.4770 1.016577  4.232954E-5
526 14.2334 1.011449  2.935528E-5
527 18.9728 0.997227 -7.140332E-6
528 5.4427 1.019330  4.997172E-5
529 2.4615 1.029931  7.769600E-5
530 4.1050 1.016786  4.375320E-5
531 -18.9037 1.010672  2.793093E-5
532 -8.4313 1.005603  1.472235E-5
533 6.2454 0.993552 -1.701215E-5
534 -8.5842 1.011375  3.013645E-5
535 3.3024 1.002506  6.666263E-6
536 -0.8254 0.994954 -1.347606E-5
537 18.1701 0.992765 -1.940122E-5
538 0.2065 1.011398  3.068735E-5
539 16.7560 0.995418 -1.238585E-5
540 4.0286 1.005615  1.524165E-5
541 3.1877 1.020955  5.710645E-5
542 -18.9801 0.994643 -1.465764E-5
543 -9.5397 1.016562  4.549670E-5
544 -18.5215 0.997221 -7.663587E-6
545 -19.2095 1.005614  1.554691E-5
546 -19.2859 1.021375  5.942431E-5
547 2.7673 1.004687  1.308317E-5
548 -16.1518 1.005252  1.471670E-5
549 -19.5152 0.989104 -3.065492E-5
550 -7.7433 0.999298 -1.982823E-6
551 -17.3367 1.008279  2.347848E-5
552 -19.7063 1.022430  6.385813E-5
553 -18.3686 0.989457 -3.013624E-5
554 18.8581 1.015257  4.378210E-5
555 18.8963 1.019268  5.550775E-5
 6.668678 360.00  10.00 -0.00 0.09
  0 -0.1375 0.979495 -1.154514E-6 
  1 -0.9783 0.986108 -7.827101E-7 
  2 -9.6926 1.024153  1.362083E-6 
  3 0.1683 1.006985  3.943594E-7 
  4 -1.7045 1.017213  9.732538E-7 
  5 10.3732 1.012510  7.085601E-7 
  6 0.2065 1.038692  2.195747E-6 
  7 0.0919 1.019143  1.088726E-6 
  8 11.6344 0.986976 -7.425681E-7 
  9 0.7416 1.017965  1.027040E-6 
 10 -9.8837 1.003595  2.061212E-7 
 11 -0.9019 1.012706  7.308555E-7 
 12 -1.0165 1.018563  1.071481E-6 
 13 -6.7114 1.039433  2.284441E-6 
 14 10.7554 1.017557  1.021127E-6 
 15 0.6270 0.994329 -3.311754E-7 
 16 -18.1775 1.014010  8.218235E-7 
 17 9.7616 1.016126  9.503662E-7 
 18 -0.5579 1.033585  1.988904E-6 
 19 -17.4131 1.025757  1.533106E-6 
 20 9.1501 1.027132  1.623533E-6 
 21 12.2460 1.006325  3.805418E-7 
 22 -10.5716 0.992926 -4.281046E-7 
 23 -1.8192 1.018228  1.109651E-6 
 24 11.6344 1.031703  1.941884E-6 
 25 -0.0228 1.008416  5.187568E-7 
 26 -7.9344 1.000533  3.309768E-8 
 27 1.9647 1.019929  1.244954E-6 
 28 11.5198 0.996729 -2.057339E-7 
 29 -8.4695 1.008553  5.418870E-7 
 30 0.4358 1.008527  5.442335E-7 
 31 9.5705 0.995295 -3.025244E-7 
 32 -1.5134 1.017246  1.117519E-6 
 33 -0.1757 1.003223  2.104890E-7 
 34 -9.4250 1.006922  4.556955E-7 
 35 0.6652 1.010085  6.693876E-7 
 36 -0.2139 1.024917  1.667742E-6 
 37 -1.3605 1.007530  5.083337E-7 
 38 -18.3304 1.004877  3.320735E-7 
 39 -0.1375 1.010654  7.318858E-7 
 40 -0.7490 1.003660  2.536815E-7 
 41 11.2522 1.004005  2.801289E-7 
 42 11.9020 1.013372  9.438921E-7 
 43 -8.7371 1.001700  1.211096E-7 
 44 -1.2076 1.005560  3.999104E-7 
 45 9.8763 1.022767  1.653420E-6 
 46 -9.9219 1.018942  1.389069E-6 
 47 -1.4752 1.025351  1.877401E-6 
 48 14.4627 1.025031  1.872158E-6 
 49 11.5962 1.018960  1.432416E-6 
 50 0.6652 1.016209  1.237078E-6 
 51 -8.7753 1.012235  9.433928E-7 
 52 12.6282 1.003284  2.558784E-7 
 53 -0.7872 1.007684  6.048658E-7 
 54 10.9465 1.026895  2.139621E-6 
 55 0.7416 1.000136  1.095035E-8 
 56 18.7052 1.025303  2.056193E-6 
 57 11.2140 0.994796 -4.274652E-7 
 58 0.5887 0.977835 -1.840473E-6 
 59 10.6025 1.009117  7.653322E-7 
 60 -6.7496 0.993858 -5.213077E-7 
 61 10.5260 0.991543 -7.256923E-7 
 62 12.5517 1.026873  2.331667E-6 
 63 9.7616 0.993227 -5.942691E-7 
 64 -1.0547 0.996162 -3.405043E-7 
 65 -19.0948 1.006465  5.801268E-7 
 66 0.4741 1.036456  3.308220E-6 
 67 -9.3868 1.013577  1.246111E-6 
 68 3.2259 1.017886  1.660370E-6 
 69 0.4741 1.029412  2.761661E-6 
 70 -18.6744 0.996517 -3.308556E-7 
 71 -10.9921 1.024865  2.388945E-6 
 72 -8.5460 1.003802  3.695600E-7 
 73 11.2140 1.010041  9.872506E-7 
 74 8.5386 1.010079  1.002537E-6 
 75 -7.1318 1.002554  2.570092E-7 
 76 -9.6161 1.007777  7.917497E-7 
 77 -0.2521 1.014670  1.510906E-6 
 78 10.9082 1.004254  4.432673E-7 
 79 9.4559 0.997323 -2.822456E-7 
 80 -3.6155 1.005415  5.775457E-7 
 81 -10.5334 1.031136  3.360298E-6 
 82 -12.9795 0.991255 -9.548793E-7 
 83 -1.4752 1.024432  2.699294E-6 
 84 0.8181 1.007853  8.778537E-7 
 85 11.7491 1.018928  2.140855E-6 
 86 -8.6988 0.998334 -1.906186E-7 
 87 -1.0930 1.009429  1.091814E-6 
 88 -19.5152 1.018876  2.211602E-6 
 89 -0.2903 1.012229  1.449794E-6 
 90 9.6088 1.017955  2.153729E-6 
 91 11.7109 1.004391  5.329042E-7 
 92 11.7109 1.012680  1.557146E-6 
 93 11.2522 1.015043  1.869086E-6 
 94 10.1821 1.003158  3.969763E-7 
 95 11.1376 1.008190  1.041818E-6 
 96 -10.3423 0.996089 -5.033687E-7 
 97 -0.5197 1.015743  2.049916E-6 
 98 -11.1067 1.011757  1.548851E-6 
 99 12.0166 1.017739  2.364401E-6 
100 10.8318 1.025744  3.471702E-6 
101 11.8638 0.994518 -7.479062E-7 
102 -0.2139 0.994673 -7.352438E-7 
103 -0.9019 1.002411  3.366492E-7 
104 13.0868 1.033765  4.770030E-6 
105 0.9327 0.998815 -1.694236E-7 
106 0.1683 0.995765 -6.122424E-7 
107 11.8255 1.000322  4.716589E-8 
108 0.7798 1.005107  7.555879E-7 
109 -9.2721 1.021046  3.149771E-6 
110 -0.8254 1.016115  2.439733E-6 
111 10.1821 1.011747  1.798844E-6 
112 11.6727 0.999866 -2.082064E-8 
113 11.7873 0.992090 -1.239360E-6 
114 -0.0228 1.014804  2.345956E-6 
115 -19.5534 1.011959  1.916802E-6 
116 11.7109 1.001433  2.323384E-7 
117 -0.0992 1.010597  1.737388E-6 
118 11.7109 1.000156  2.587336E-8 
119 13.2015 1.023664  3.968258E-6 
120 -1.0930 1.025437  4.313648E-6 
121 10.2203 1.007263  1.245643E-6 
122 10.0292 1.031467  5.457085E-6 
123 -9.9219 1.011483  2.013829E-6 
124 -7.4758 1.025920  4.596344E-6 
125 10.5260 0.995352 -8.334785E-7 
126 0.7034 1.001723  3.124168E-7 
127 -9.9983 0.995019 -9.130121E-7 
128 11.3287 1.016017  2.968642E-6 
129 -18.5979 0.997386 -4.899268E-7 
130 -8.7371 1.009367  1.774635E-6 
131 11.2140 1.041647  7.976812E-6 
132 -8.1255 1.017916  3.469137E-6 
133 11.7873 1.021210  4.151735E-6 
134 -9.5015 1.026870  5.316815E-6 
135 10.7554 1.004824  9.650043E-7 
136 -9.0810 1.009709  1.963069E-6 
137 10.9847 1.014271  2.916520E-6 
138 -9.5779 1.020068  4.145511E-6 
139 11.2905 1.006000  1.252651E-6 
140 0.1683 1.017857  3.768231E-6 
141 -0.8254 1.001636  3.489104E-7 
142 -10.1130 1.025530  5.502563E-6 
143 -17.9864 1.008758  1.907713E-6 
144 -10.7245 1.007482  1.646999E-6 
145 -10.4188 0.999780 -4.903668E-8 
146 10.5260 1.012105  2.721049E-6 
147 -0.8636 1.005084  1.154832E-6 
148 -0.9783 1.010192  2.339162E-6 
149 -1.6663 1.030869  7.158240E-6 
150 -8.8517 0.996104 -9.128813E-7 
151 15.9533 1.028877  6.835738E-6 
152 -11.4125 0.996721 -7.841172E-7 
153 -9.2339 1.029357  7.093317E-6 
154 0.2830 1.042348  1.033689E-5 
155 1.8500 0.999015 -2.430009E-7 
156 -9.8837 1.006726  1.675547E-6 
157 -8.5460 1.021750  5.472895E-6 
158 12.7428 1.022378  5.687780E-6 
159 -9.3104 0.992394 -1.952740E-6 
160 16.6413 1.021093  5.469659E-6 
161 -0.3668 0.997916 -5.459263E-7 
162 -8.2402 1.016474  4.357746E-6 
163 -9.5015 1.019856  5.304829E-6 
164 0.0154 1.009315  2.513283E-6 
165 -8.5460 1.005951  1.621535E-6 
166 -17.1838 1.003530  9.712472E-7 
167 -1.3223 1.030896  8.585205E-6 
168 -2.7747 0.997239 -7.746620E-7 
169 -13.2853 1.015391  4.360697E-6 
170 -8.3548 1.003248  9.292323E-7 
171 10.8700 1.030863  8.915238E-6 
172 -13.0177 0.995994 -1.168387E-6 
173 -10.6863 0.997755 -6.609530E-7 
174 -9.3868 1.026772  7.959149E-6 
175 11.5198 0.993984 -1.805733E-6 
176 10.9847 1.025138  7.616953E-6 
177 10.5260 0.995480 -1.382745E-6 
178 12.3606 1.008417  2.599028E-6 
179 12.3606 1.002467  7.689334E-7 
180 -1.2458 1.038123  1.199481E-5 
181 18.7434 1.017108  5.433223E-6 
182 -10.4570 0.992350 -2.452283E-6 
183 12.2842 0.994748 -1.699358E-6 
184 18.5523 1.018142  5.924583E-6 
185 10.4114 1.004648  1.532073E-6 
186 12.8575 1.000468  1.555356E-7 
187 -9.3486 1.000893  2.996996E-7 
188 -7.5140 1.008896  3.013684E-6 
189 -11.1067 1.001785  6.103883E-7 
190 10.1056 1.006903  2.381575E-6 
191 0.0154 1.015890  5.531630E-6 
192 -10.3423 1.002111  7.416110E-7 
193 -0.6725 1.008027  2.845166E-6 
194 11.7109 1.023655  8.459928E-6 
195 10.0674 1.006232  2.248623E-6 
196 -16.9544 1.014855  5.408381E-6 
197 -0.1757 0.997168 -1.040329E-6 
198 10.5643 1.012318  4.564610E-6 
199 17.6350 0.993059 -2.594858E-6 
200 -8.9282 0.997608 -9.019893E-7 
201 -10.7245 1.005136  1.954247E-6 
202 11.6727 1.009381  3.600654E-6 
203 -17.5278 1.020087  7.777027E-6 
204 -8.6224 1.009941  3.882104E-6 
205 9.9145 1.018058  7.113637E-6 
206 -0.2903 1.009984  3.966900E-6 
207 10.7936 1.001501  6.017430E-7 
208 13.2779 1.018217  7.363511E-6 
209 11.9402 1.001155  4.708202E-7 
210 -0.9019 1.006530  2.684850E-6 
211 0.2065 0.986796 -5.475320E-6 
212 -11.9858 1.015348  6.418393E-6 
213 -1.5898 1.017086  7.205511E-6 
214 -0.4814 0.990047 -4.232660E-6 
215 -16.1900 1.010690  4.584664E-6 
216 -0.7872 1.014692  6.353424E-6 
217 -12.1387 0.994675 -2.322173E-6 
218 0.3594 0.998250 -7.696925E-7 
219 0.6270 1.004135  1.833257E-6 
220 11.6727 0.998107 -8.460528E-7 
221 -9.0046 0.987727 -5.531425E-6 
222 -0.9019 1.016452  7.476161E-6 
223 -0.7872 1.046325  2.122391E-5 
224 11.6727 1.014790  6.831400E-6 
225 -8.6606 1.007134  3.322108E-6 
226 -0.2903 1.015141  7.107899E-6 
227 -0.2521 1.003861  1.827434E-6 
228 12.0549 1.004521  2.157049E-6 
229 -10.3041 0.999066 -4.490774E-7 
230 -9.3104 1.015465  7.497068E-6 
231 -10.5334 0.997876 -1.037750E-6 
232 -9.8072 1.003424  1.686716E-6 
233 11.8638 1.010564  5.244534E-6 
234 1.3914 1.013184  6.597582E-6 
235 10.3349 1.014340  7.232464E-6 
236 12.8575 1.012624  6.417221E-6 
237 10.8700 1.014201  7.275574E-6 
238 -10.2276 1.004547  2.347850E-6 
239 13.2397 1.010891  5.667332E-6 
240 11.0993 1.024321  1.275444E-5 
241 0.0536 0.981390 -9.835472E-6 
242 -18.0628 1.011438  6.091938E-6 
243 13.2397 1.012366  6.636941E-6 
244 10.0674 1.009770  5.283738E-6 
245 -2.3925 1.015752  8.584619E-6 
246 9.7234 1.002466  1.354286E-6 
247 -10.3423 0.997416 -1.429989E-6 
248 -19.3241 0.998826 -6.543700E-7 
249 -0.6725 1.002731  1.534233E-6 
250 10.1821 1.010113  5.723992E-6 
251 10.0292 0.989505 -5.985086E-6 
252 -9.1575 1.001896  1.089158E-6 
253 10.7554 0.998470 -8.856683E-7 
254 0.6270 1.019079  1.112644E-5 
255 13.5455 1.020758  1.219608E-5 
256 0.5505 1.013602  8.050702E-6 
257 -11.1067 0.994454 -3.306716E-6 
258 0.3594 1.023587  1.416816E-5 
259 -2.6600 0.990244 -5.903226E-6 
260 1.1238 1.028884  1.760573E-5 
261 0.6652 0.996225 -2.317846E-6 
262 -0.5961 1.011930  7.378233E-6 
263 11.3669 1.001479  9.211793E-7 
264 -11.6418 1.022206  1.393431E-5 
265 -9.7308 1.007807  4.934068E-6 
266 -0.3286 0.996191 -2.424857E-6 
267 0.2830 1.013156  8.435634E-6 
268 -0.2139 0.987464 -8.095204E-6 
269 14.1188 1.021163  1.376421E-5 
270 12.7810 1.017731  1.161432E-5 
271 -0.7872 1.003401  2.243534E-6 
272 -0.0992 1.009595  6.374740E-6 
273 12.1313 1.012868  8.609913E-6 
274 -2.6600 1.015471  1.042443E-5 
275 10.9082 1.013676  9.279559E-6 
276 -8.4695 1.021956  1.500197E-5 
277 -0.4432 1.016474  1.133532E-5 
278 -12.9031 1.016738  1.159693E-5 
279 12.6664 0.993817 -4.313977E-6 
280 -1.6281 1.013321  9.358037E-6 
281 12.0931 0.989578 -7.372666E-6 
282 -18.6361 1.010334  7.360256E-6 
283 -8.9664 1.020234  1.451128E-5 
284 -9.3868 1.017121  1.236280E-5 
285 -1.6663 1.011768  8.555339E-6 
286 -8.7753 0.969276 -2.248983E-5 
287 -19.0948 1.007272  5.359197E-6 
288 0.7416 0.990433 -7.098248E-6 
289 -11.9858 1.011956  8.930855E-6 
290 11.4816 0.998511 -1.119647E-6 
291 -0.4050 1.001171  8.868832E-7 
292 -9.4632 1.025972  1.979552E-5 
293 0.6270 0.982841 -1.316546E-5 
294 -11.0685 1.022961  1.773515E-5 
295 -1.3223 1.010124  7.871768E-6 
296 -9.4632 1.002987  2.338177E-6 
297 -10.3423 1.015590  1.228351E-5 
298 10.9082 1.005614  4.452199E-6 
299 10.5643 0.995374 -3.693095E-6 
300 10.7554 1.033395  2.683565E-5 
301 12.5899 1.014322  1.158399E-5 
302 0.3594 1.018710  1.523197E-5 
303 -17.9864 0.999414 -4.802836E-7 
304 -7.9726 1.015741  1.298239E-5 
305 -16.7251 1.029857  2.478512E-5 
306 9.1883 1.013635  1.139214E-5 
307 10.7554 0.992489 -6.316088E-6 
308 14.9214 1.000429  3.632176E-7 
309 -8.0109 1.004897  4.170827E-6 
310 -9.6161 1.027730  2.376964E-5 
311 -8.5077 1.023869  2.059084E-5 
312 -7.4758 0.995908 -3.552225E-6 
313 11.0229 1.016157  1.411569E-5 
314 -0.0992 1.001124  9.883347E-7 
315 10.3732 0.996810 -2.822056E-6 
316 -9.9983 0.988583 -1.016486E-5 
317 0.5887 1.012661  1.134319E-5 
318 11.0229 0.996882 -2.810977E-6 
319 -10.7245 1.019854  1.801167E-5 
320 11.7109 1.012110  1.105504E-5 
321 11.1376 1.016089  1.477849E-5 
322 -15.7696 1.021811  2.015885E-5 
323 9.9527 1.009356  8.701099E-6 
324 18.0555 0.997011 -2.796909E-6 
325 -8.8135 1.022563  2.124282E-5 
326 10.6025 1.019961  1.890857E-5 
327 -1.1312 0.989795 -9.726353E-6 
328 -0.9019 1.014474  1.387914E-5 
329 -0.7108 1.011690  1.127846E-5 
330 -1.2841 1.030399  2.950730E-5 
331 -10.9921 0.995582 -4.314533E-6 
332 -0.0610 1.019430  1.908954E-5 
333 0.6652 1.029879  2.953251E-5 
334 11.3669 1.011730  1.166373E-5 
335 -9.6543 1.006177  6.179054E-6 
336 9.7234 1.012223  1.230049E-5 
337 10.2203 1.005926  5.999392E-6 
338 10.9082 1.023067  2.349212E-5 
339 11.7109 0.995328 -4.786718E-6 
340 -0.4050 1.006064  6.249019E-6 
341 12.8957 0.993354 -6.889920E-6 
342 -0.6725 1.007755  8.086712E-6 
343 11.7873 1.010874  1.140633E-5 
344 -9.6926 1.027445  2.895847E-5 
345 14.1570 1.001802  1.912360E-6 
346 -9.0810 1.000060  6.391756E-8 
347 14.5010 1.028966  3.110404E-5 
348 0.3976 1.025294  2.731968E-5 
349 -0.0228 1.004075  4.426995E-6 
350 -0.7872 1.025260  2.760121E-5 
351 -0.0610 1.004103  4.508835E-6 
352 -18.5979 0.984818 -1.678127E-5 
353 10.4114 1.015677  1.742883E-5 
354 -8.3548 1.003108  3.475222E-6 
355 -0.5961 1.020607  2.317285E-5 
356 -0.0610 0.990808 -1.039567E-5 
357 12.5135 1.035463  4.033580E-5 
358 -10.3041 1.012422  1.420916E-5 
359 -7.6669 0.996740 -3.750702E-6 
360 -9.5779 1.008259  9.554747E-6 
361 11.7491 1.000139  1.619123E-7 
362 -9.3868 1.010226  1.196459E-5 
363 -10.9538 1.014441  1.699205E-5 
364 -10.8392 1.012001  1.420016E-5 
365 0.2830 1.001483  1.764425E-6 
366 -0.8636 1.005799  6.938403E-6 
367 12.3224 0.990388 -1.156476E-5 
368 -0.2903 0.999284 -8.667437E-7 
369 -9.5397 1.007407  9.011691E-6 
370 -9.8072 1.012752  1.560083E-5 
371 9.3412 1.012061  1.483698E-5 
372 -10.6481 0.987285 -1.572802E-5 
373 10.0674 1.039323  4.890824E-5 
374 -3.0040 1.014368  1.796783E-5 
375 11.4051 0.995821 -5.254656E-6 
376 -19.9356 0.985111 -1.882489E-5 
377 -8.3931 0.990397 -1.220749E-5 
378 11.5198 1.026223  3.351630E-5 
379 -6.5585 1.010826  1.391302E-5 
380 0.4358 0.980625 -2.503335E-5 
381 -9.8837 1.021442  2.785450E-5 
382 -2.0103 0.997561 -3.185940E-6 
383 -8.4313 0.990087 -1.301687E-5 
384 -2.0485 1.015136  1.998140E-5 
385 10.9847 1.035707  4.739252E-5 
386 12.0166 1.008950  1.194280E-5 
387 0.2830 1.004872  6.535431E-6 
388 -1.0930 1.024676  3.327850E-5 
389 0.7798 1.010086  1.367486E-5 
390 -0.7490 1.014810  2.018592E-5 
391 0.3212 1.029287  4.012930E-5 
392 -0.6725 1.005701  7.852269E-6 
393 9.7616 1.020228  2.801047E-5 
394 11.5580 1.015179  2.112955E-5 
395 -8.8899 1.015284  2.138642E-5 
396 -0.7490 1.010460  1.471401E-5 
397 0.0919 1.013959  1.973840E-5 
398 12.2077 1.003598  5.113553E-6 
399 1.5442 0.999957 -6.156346E-8 
400 10.7936 1.005306  7.620344E-6 
401 -1.1312 1.014290  2.063047E-5 
402 -7.3229 1.009002  1.306310E-5 
403 -10.9156 1.014401  2.100621E-5 
404 -19.3623 1.013194  1.934460E-5 
405 18.0172 0.992249 -1.142238E-5 
406 11.5580 0.985525 -2.144011E-5 
407 -9.9601 1.006109  9.095035E-6 
408 -0.2139 1.034703  5.193060E-5 
409 -1.8956 0.988163 -1.780348E-5 
410 -9.3104 1.009043  1.367061E-5 
411 10.5643 1.015564  2.364707E-5 
412 1.0474 1.017607  2.688728E-5 
413 -1.4370 1.016770  2.573874E-5 
414 11.7491 1.037716  5.817871E-5 
415 11.3287 1.003544  5.494111E-6 
416 -11.0303 1.009955  1.551081E-5 
417 0.1301 0.988388 -1.818338E-5 
418 -11.2596 1.007218  1.135907E-5 
419 -7.2082 1.008740  1.382344E-5 
420 10.0292 1.002556  4.063122E-6 
421 -6.7114 0.996744 -5.201441E-6 
422 -11.4889 1.005007  8.037524E-6 
423 0.2447 1.006105  9.848817E-6 
424 -11.5271 0.987413 -2.040846E-5 
425 -9.8454 1.036155  5.890864E-5 
426 -6.2145 1.026239  4.296261E-5 
427 -10.1512 1.018792  3.092149E-5 
428 12.8575 1.004638  7.669040E-6 
429 0.3976 0.965886 -5.668365E-5 
430 -9.6926 1.022476  3.752810E-5 
431 -9.5015 1.016660  2.795358E-5 
432 -10.1894 1.013955  2.352843E-5 
433 -9.1193 1.012848  2.176823E-5 
434 0.7798 1.021433  3.648883E-5 
435 -8.5842 1.009858  1.686497E-5 
436 -2.4307 1.009582  1.647109E-5 
437 -10.4188 1.001051  1.814782E-6 
438 11.4051 1.004364  7.574177E-6 
439 -0.4432 1.007762  1.353651E-5 
440 -7.4758 1.021970  3.849818E-5 
441 -10.3805 1.006661  1.172853E-5 
442 -10.0748 1.004494  7.951125E-6 
443 18.7817 1.007347  1.305929E-5 
444 -10.3423 1.001340  2.392761E-6 
445 -1.8956 0.995912 -7.336578E-6 
446 -10.6099 1.013302  2.398375E-5 
447 0.0154 1.022049  3.994223E-5 
448 -1.4752 0.992476 -1.369503E-5 
449 -10.8392 1.028340  5.182370E-5 
450 -0.9019 0.997656 -4.306195E-6 
451 -1.8192 1.007643  1.410789E-5 
452 -13.1324 0.990051 -1.845146E-5 
453 -2.0485 1.015770  2.938300E-5 
454 10.7171 1.012451  2.330684E-5 
455 -0.8254 1.033698  6.337313E-5 
456 11.2905 0.999897 -1.939151E-7 
457 -10.8010 0.996001 -7.589858E-6 
458 -18.8655 1.008754  1.669438E-5 
459 12.7046 1.013089  2.507529E-5 
460 -7.7051 0.993377 -1.274657E-5 
461 -9.1193 0.992484 -1.453175E-5 
462 1.4678 1.003679  7.145672E-6 
463 -9.4250 1.023491  4.583875E-5 
464 -0.1757 1.014245  2.792380E-5 
465 -18.7508 1.001241  2.444278E-6 
466 0.5505 1.018065  3.573750E-5 
467 -1.6281 0.992780 -1.434700E-5 
468 11.6727 1.002671  5.331312E-6 
469 -0.1375 1.004276  8.574611E-6 
470 11.1758 1.017961  3.618245E-5 
471 -17.9864 1.014615  2.957429E-5 
472 -2.8129 1.004966  1.009468E-5 
473 -17.9482 0.999931 -1.417004E-7 
474 12.8575 1.004116  8.441949E-6 
475 0.9709 0.993364 -1.367210E-5 
476 10.8318 1.003415  7.067123E-6 
477 12.8575 1.000634  1.318303E-6 
478 13.6983 1.022614  4.721989E-5 
479 -7.7815 1.029670  6.223048E-5 
480 -1.6281 1.016310  3.436191E-5 
481 -0.2521 0.999015 -2.084514E-6 
482 -9.9983 1.015736  3.344658E-5 
483 -10.9538 1.024529  5.236784E-5 
484 0.2065 1.027759  5.952759E-5 
485 -13.2088 1.014465  3.115670E-5 
486 12.0166 1.000861  1.862678E-6 
487 0.6270 1.018366  3.990733E-5 
488 -14.5083 1.015418  3.364876E-5 
489 -4.4946 0.997952 -4.488372E-6 
490 11.6727 1.026052  5.735623E-5 
491 13.0868 0.999358 -1.420696E-6 
492 0.1301 0.991604 -1.864636E-5 
493 -1.1694 1.018721  4.175861E-5 
494 -4.9532 1.004107  9.201074E-6 
495 13.0486 1.017759  3.995735E-5 
496 -8.2402 1.006409  1.448241E-5 
497 -1.2841 1.005682  1.289596E-5 
498 -10.4952 0.994073 -1.350889E-5 
499 -18.2922 1.025165  5.760438E-5 
500 1.0474 1.005091  1.170488E-5 
501 -4.4946 1.016891  3.899839E-5 
502 -9.1957 1.021002  4.869732E-5 
503 12.7810 1.018147  4.225896E-5 
504 10.7171 1.033173  7.757780E-5 
505 -0.4050 1.032457  7.622728E-5 
506 11.4051 1.002614  6.165865E-6 
507 -0.4814 1.012954  3.068408E-5 
508 0.3976 1.025363  6.032961E-5 
509 14.7303 0.983369 -3.972711E-5 
510 -19.3241 0.977045 -5.506583E-5 
511 5.4427 0.991803 -1.974687E-5 
512 -14.0497 1.007435  1.798762E-5 
513 -11.4889 0.993811 -1.503506E-5 
514 -18.6361 1.009042  2.205893E-5 
515 -10.0365 1.001384  3.390745E-6 
516 -0.5961 1.032029  7.879261E-5 
517 12.3224 1.014824  3.662115E-5 
518 0.3212 0.992863 -1.770508E-5 
519 11.0611 1.017063  4.250482E-5 
520 -3.6920 1.017831  4.460245E-5 
521 -0.0228 1.006201  1.557464E-5 
522 -8.8517 1.010695  2.697464E-5 
523 -9.6543 1.008800  2.228755E-5 
524 -9.9219 1.003201  8.141125E-6 
525 12.0549 1.001648  4.208235E-6 
526 9.9145 1.004731  1.212974E-5 
527 11.7873 0.994869 -1.321127E-5 
528 8.5768 1.002797  7.230012E-6 
529 -0.9401 1.027685  7.186709E-5 
530 13.9277 1.001104  2.878463E-6 
531 -7.5140 1.002846  7.447337E-6 
532 11.9020 1.007099  1.865537E-5 
533 -2.2396 1.014549  3.838691E-5 
534 14.0041 1.020631  5.465717E-5 
535 11.2522 0.989121 -2.893957E-5 
536 9.7999 1.008774  2.343287E-5 
537 -0.7490 1.010144  2.720277E-5 
538 0.1301 1.006615  1.781033E-5 
539 -0.9401 1.010961  2.963042E-5 
540 -0.6725 1.036634  9.943351E-5 
541 0.0536 1.002180  5.939903E-6 
542 -1.5898 0.978164 -5.974479E-5 
543 10.1056 1.006034  1.657502E-5 
544 18.1701 1.018513  5.106123E-5 
545 -2.4689 1.010281  2.846862E-5 
546 19.0110 0.989106 -3.028654E-5 
547 14.1570 1.023904  6.672273E-5 
548 -18.9037 1.018582  5.207281E-5 
549 -10.0365 0.984465 -4.370795E-5 
550 11.4433 1.005190  1.466120E-5 
551 -9.3104 0.995406 -1.302878E-5 
552 -2.5071 1.022281  6.343470E-5 
553 0.2447 1.012470  3.564191E-5 
554 -16.1136 0.987663 -3.540169E-5 
555 -13.1706 1.016325  4.703013E-5 
 6.670039  90.00  10.00 -0.00 -0.01
  0 -0.0610 0.936972 -3.548802E-6 
  1 -1.2458 0.947645 -2.949793E-6 
  2 -5.8705 1.101121  5.702695E-6 
  3 0.0919 1.081151  4.581947E-6 
  4 -0.2139 1.108617  6.141554E-6 
  5 -0.5961 1.117709  6.666914E-6 
  6 -0.8254 1.123103  6.986057E-6 
  7 -0.6343 1.115845  6.588633E-6 
  8 -1.2458 1.095578  5.449347E-6 
  9 -0.9783 1.100725  5.758316E-6 
 10 -0.6343 1.105631  6.056679E-6 
 11 -0.9783 1.085988  4.946143E-6 
 12 -0.8636 1.095783  5.528573E-6 
 13 -1.2076 1.077025  4.462306E-6 
 14 -1.4752 1.059835  3.480053E-6 
 15 -1.2841 1.036798  2.149141E-6 
 16 -1.4752 1.049686  2.914617E-6 
 17 -2.6218 1.072357  4.264162E-6 
 18 -2.1631 1.035220  2.085729E-6 
 19 -2.5071 1.033149  1.973067E-6 
 20 -3.1187 1.032536  1.946858E-6 
 21 -3.9595 1.017419  1.048058E-6 
 22 -2.6600 1.014094  8.529246E-7 
 23 -3.0804 1.035527  2.162746E-6 
 24 0.5123 1.042354  2.594245E-6 
 25 -5.1443 1.021502  1.325441E-6 
 26 -14.6612 1.007985  4.954631E-7 
 27 -4.8768 1.026520  1.656693E-6 
 28 -4.2270 1.000781  4.914283E-8 
 29 -5.1443 0.994691 -3.363553E-7 
 30 -3.0804 1.015616  9.966349E-7 
 31 -2.4307 1.020444  1.314618E-6 
 32 6.6658 1.014193  9.197185E-7 
 33 -4.6092 1.004135  2.700670E-7 
 34 -4.7239 1.006944  4.571809E-7 
 35 4.6783 1.012748  8.461784E-7 
 36 0.7416 1.005814  3.891744E-7 
 37 -3.8831 1.007214  4.869513E-7 
 38 -5.3737 1.006619  4.506897E-7 
 39 -5.3354 1.005497  3.776137E-7 
 40 9.1119 1.013693  9.490573E-7 
 41 -3.5009 1.011243  7.863775E-7 
 42 16.6413 1.026694  1.884332E-6 
 43 -4.8386 0.999013 -7.036000E-8 
 44 -2.6218 1.012185  8.764358E-7 
 45 -5.1443 1.007543  5.477662E-7 
 46 2.5762 1.005580  4.091802E-7 
 47 2.5380 1.025813  1.911607E-6 
 48 10.4496 1.027043  2.022667E-6 
 49 -3.2715 1.028404  2.145872E-6 
 50 -2.5453 1.019517  1.489529E-6 
 51 -4.9915 1.025682  1.980170E-6 
 52 -0.8254 1.008761  6.825371E-7 
 53 -6.7878 1.006519  5.132152E-7 
 54 6.5129 1.014746  1.173087E-6 
 55 -10.2276 1.005040  4.052411E-7 
 56 3.9521 1.005995  4.872013E-7 
 57 14.0423 1.001432  1.175920E-7 
 58 0.0154 1.014536  1.206966E-6 
 59 -15.4638 1.015709  1.318652E-6 
 60 -1.8192 0.999894 -8.993547E-9 
 61 6.7422 1.012671  1.087300E-6 
 62 18.0172 1.034904  3.028469E-6 
 63 16.0298 0.998746 -1.100615E-7 
 64 -6.0616 1.005508  4.887305E-7 
 65 2.8437 1.011683  1.048265E-6 
 66 -10.2276 1.046196  4.192168E-6 
 67 -14.3937 1.014049  1.289424E-6 
 68 -9.0428 1.009766  9.065885E-7 
 69 -2.8129 1.016307  1.531158E-6 
 70 3.1495 0.985672 -1.360850E-6 
 71 -10.8010 1.013612  1.307811E-6 
 72 -9.6926 1.012241  1.189737E-6 
 73 14.8450 1.020723  2.037482E-6 
 74 13.8894 1.011462  1.140095E-6 
 75 1.4296 1.039370  3.961524E-6 
 76 5.0605 1.013855  1.410494E-6 
 77 -6.0616 1.022099  2.276081E-6 
 78 -6.8643 1.027393  2.854395E-6 
 79 5.5956 1.014246  1.501860E-6 
 80 -9.8837 1.010318  1.100571E-6 
 81 4.1432 1.015457  1.668135E-6 
 82 -4.7621 1.020824  2.273828E-6 
 83 11.0993 1.009939  1.098098E-6 
 84 1.0092 1.014994  1.676180E-6 
 85 14.7303 1.025712  2.908272E-6 
 86 -6.3292 1.008801  1.007280E-6 
 87 6.2836 1.004006  4.638302E-7 
 88 5.3281 1.029040  3.402464E-6 
 89 -6.2145 1.013838  1.640453E-6 
 90 13.0104 1.017948  2.152910E-6 
 91 -14.1261 1.022012  2.671570E-6 
 92 7.3537 0.998166 -2.251778E-7 
 93 -16.0372 1.019133  2.377277E-6 
 94 -2.8129 1.009144  1.149523E-6 
 95 -6.5967 1.015238  1.938206E-6 
 96 15.9533 0.996964 -3.907253E-7 
 97 2.2322 1.005325  6.933533E-7 
 98 -8.7753 1.034196  4.505003E-6 
 99 -9.5015 0.996020 -5.304285E-7 
100 -5.5265 1.019482  2.627155E-6 
101 -7.3611 1.027635  3.770251E-6 
102 14.3099 1.018191  2.510949E-6 
103 -7.8198 1.002755  3.846524E-7 
104 -12.5209 1.018030  2.547074E-6 
105 14.8067 1.006828  9.757641E-7 
106 9.2265 1.001725  2.493607E-7 
107 13.3544 0.999563 -6.396335E-8 
108 3.7992 1.019738  2.920273E-6 
109 -8.3931 1.027359  4.094674E-6 
110 0.5887 1.014391  2.178675E-6 
111 -11.0303 1.029036  4.446470E-6 
112 1.0474 1.010014  1.551206E-6 
113 3.0731 1.014440  2.262410E-6 
114 4.4490 1.011032  1.748282E-6 
115 -12.7502 1.014217  2.278735E-6 
116 -7.8198 1.026948  4.368467E-6 
117 4.5637 1.006693  1.097358E-6 
118 11.7109 1.008616  1.428637E-6 
119 1.3531 1.009819  1.646524E-6 
120 -13.6675 1.004765  8.080594E-7 
121 -6.0998 1.009921  1.701370E-6 
122 -7.1700 1.003522  6.107477E-7 
123 -15.1963 1.011155  1.956308E-6 
124 -7.9344 1.027149  4.814260E-6 
125 5.1752 1.010936  1.960891E-6 
126 11.5962 1.005205  9.436814E-7 
127 5.9014 1.009736  1.784773E-6 
128 -16.3047 1.020390  3.779230E-6 
129 2.5380 1.004302  8.062387E-7 
130 -12.5591 1.018026  3.415057E-6 
131 8.2710 1.012927  2.475873E-6 
132 -19.8210 0.978028 -4.254536E-6 
133 5.4045 1.000738  1.444706E-7 
134 -3.8448 0.997756 -4.440552E-7 
135 10.9082 1.015762  3.152688E-6 
136 -8.4313 1.011483  2.321643E-6 
137 -13.8586 1.049835  1.018469E-5 
138 -6.4820 1.007328  1.513709E-6 
139 -3.8066 1.018518  3.866385E-6 
140 -14.5083 1.013444  2.837022E-6 
141 -14.6612 1.009403  2.005367E-6 
142 4.5637 1.024704  5.324713E-6 
143 -5.9852 1.025413  5.535484E-6 
144 -14.4319 1.017188  3.783599E-6 
145 5.4045 1.002864  6.370344E-7 
146 -5.7176 1.035024  7.872721E-6 
147 -2.3160 0.999599 -9.108687E-8 
148 13.7366 1.006199  1.422640E-6 
149 13.4308 1.009158  2.123665E-6 
150 4.5637 1.022739  5.327704E-6 
151 -15.5785 1.014324  3.390741E-6 
152 -3.4626 1.003744  8.954546E-7 
153 2.7673 1.011220  2.710942E-6 
154 -4.5328 1.005573  1.360277E-6 
155 13.0486 1.019075  4.703800E-6 
156 13.9277 1.007532  1.876173E-6 
157 -2.9658 1.022680  5.706867E-6 
158 -4.8003 1.026573  6.754199E-6 
159 1.7353 1.007662  1.966980E-6 
160 14.0805 0.996451 -9.202464E-7 
161 -6.8260 1.003328  8.716148E-7 
162 0.7416 1.012940  3.423089E-6 
163 -1.5898 1.012214  3.263001E-6 
164 -5.1443 1.026322  7.102039E-6 
165 -8.4695 0.990202 -2.669728E-6 
166 -12.8266 1.026544  7.304017E-6 
167 -2.0103 1.007928  2.202863E-6 
168 14.1188 1.010658  2.990680E-6 
169 -17.9100 1.008255  2.338875E-6 
170 -11.0303 1.013775  3.940757E-6 
171 -11.1067 1.010736  3.101182E-6 
172 -2.2778 1.003710  1.081961E-6 
173 -12.1005 0.997552 -7.209828E-7 
174 -17.1073 1.019841  5.898478E-6 
175 0.5887 0.989606 -3.119624E-6 
176 12.7046 1.015379  4.659830E-6 
177 -8.5460 1.038051  1.163927E-5 
178 -14.0879 1.017585  5.430107E-6 
179 -8.4313 1.020836  6.494531E-6 
180 -2.4689 1.018375  5.781480E-6 
181 -3.2715 0.991448 -2.716014E-6 
182 -4.5710 1.006143  1.969148E-6 
183 -1.7045 1.022817  7.382508E-6 
184 -16.1518 1.020711  6.763442E-6 
185 4.9841 1.012102  3.988786E-6 
186 -0.9019 1.004246  1.412264E-6 
187 -4.8768 1.008682  2.914486E-6 
188 14.2716 1.031732  1.074984E-5 
189 -4.8386 1.018939  6.474510E-6 
190 17.9790 1.017224  5.942207E-6 
191 3.3406 1.016556  5.763652E-6 
192 10.5643 1.022545  7.919329E-6 
193 -12.3680 1.017350  6.149477E-6 
194 -4.9532 1.004586  1.640275E-6 
195 -5.4501 1.034385  1.240753E-5 
196 16.0680 1.003386  1.232714E-6 
197 -11.7947 0.995318 -1.719701E-6 
198 -5.8323 1.003620  1.341303E-6 
199 -16.1136 1.012829  4.796066E-6 
200 3.6081 0.998140 -7.013767E-7 
201 5.2898 1.000439  1.671373E-7 
202 -1.5898 1.011488  4.409263E-6 
203 3.7992 1.029677  1.148981E-5 
204 5.0223 0.991941 -3.147435E-6 
205 -13.1324 1.021095  8.309971E-6 
206 2.9584 1.005705  2.266802E-6 
207 4.7930 1.027445  1.099906E-5 
208 9.9910 1.017038  6.886832E-6 
209 -2.1249 1.020316  8.282403E-6 
210 -13.5146 1.007444  3.060768E-6 
211 14.8450 1.016395  6.798570E-6 
212 10.6407 1.016918  7.074728E-6 
213 -3.6920 0.984477 -6.546316E-6 
214 5.0987 0.997730 -9.655844E-7 
215 -10.7245 1.019499  8.362153E-6 
216 -1.2458 1.024742  1.069975E-5 
217 14.1570 1.022036  9.609385E-6 
218 -12.8266 1.018765  8.251120E-6 
219 -3.4244 1.020244  8.975386E-6 
220 -5.0297 0.985587 -6.443059E-6 
221 1.7353 1.001363  6.143619E-7 
222 3.1495 1.007604  3.455285E-6 
223 -12.2533 1.033352  1.528014E-5 
224 1.0474 1.013140  6.069257E-6 
225 -9.9983 1.020656  9.618868E-6 
226 13.9277 1.005068  2.379323E-6 
227 5.7867 1.020499  9.701354E-6 
228 -6.4438 1.024075  1.148560E-5 
229 -2.6218 1.007721  3.713063E-6 
230 -4.5710 1.018458  8.947844E-6 
231 3.7228 1.004533  2.214888E-6 
232 10.5643 1.019625  9.666235E-6 
233 -14.4319 1.016939  8.409476E-6 
234 -6.7114 0.998903 -5.487911E-7 
235 -12.2533 1.022793  1.149612E-5 
236 -9.1193 1.009015  4.582646E-6 
237 -12.1387 1.021501  1.101556E-5 
238 -16.4576 1.014163  7.312787E-6 
239 6.8951 1.007212  3.752802E-6 
240 -2.9275 0.982191 -9.339520E-6 
241 16.4502 0.985303 -7.767398E-6 
242 -7.1700 0.998812 -6.324609E-7 
243 -2.6218 1.017984  9.652024E-6 
244 -15.8461 1.012985  7.022924E-6 
245 6.6276 1.025934  1.413357E-5 
246 10.9082 1.031573  1.733840E-5 
247 -11.7947 1.009584  5.303228E-6 
248 -3.4244 1.015677  8.740347E-6 
249 -1.0930 1.017029  9.566496E-6 
250 0.5123 0.991224 -4.967277E-6 
251 15.3800 1.008681  4.950603E-6 
252 5.7485 1.029186  1.676909E-5 
253 -6.0234 1.005864  3.394658E-6 
254 -12.0240 1.020589  1.200721E-5 
255 2.4233 0.996535 -2.035548E-6 
256 4.2579 1.019681  1.164923E-5 
257 -11.1832 1.010337  6.163971E-6 
258 -9.6543 1.013112  7.875766E-6 
259 8.3475 0.999916 -5.066217E-8 
260 -8.6224 1.010646  6.489396E-6 
261 2.4998 1.004443  2.728144E-6 
262 8.8443 1.025969  1.606123E-5 
263 1.2767 1.019935  1.241900E-5 
264 -10.1130 1.044251  2.776720E-5 
265 -2.5453 0.992363 -4.827108E-6 
266 -12.7120 1.019955  1.270305E-5 
267 -0.6343 1.008634  5.536149E-6 
268 -0.0610 1.003466  2.238208E-6 
269 -13.0942 1.008649  5.625401E-6 
270 -2.5453 1.020809  1.363032E-5 
271 4.5254 1.014806  9.767703E-6 
272 4.3726 1.002831  1.880975E-6 
273 -7.0554 1.014773  9.884328E-6 
274 0.1683 1.039059  2.631775E-5 
275 -6.9025 1.005878  3.988189E-6 
276 17.5586 1.001711  1.169152E-6 
277 10.6407 1.003605  2.480746E-6 
278 -8.7753 1.019438  1.346797E-5 
279 -1.3223 1.013391  9.342962E-6 
280 -4.0742 1.009449  6.638126E-6 
281 -10.9921 1.015669  1.108394E-5 
282 -11.2214 1.005145  3.664437E-6 
283 4.6019 1.023630  1.694694E-5 
284 -4.3799 1.024769  1.788542E-5 
285 -0.6343 1.007488  5.444042E-6 
286 -1.0547 0.995612 -3.211750E-6 
287 7.4684 0.991704 -6.113695E-6 
288 5.0223 1.005587  4.145065E-6 
289 10.6025 1.007847  5.861654E-6 
290 -11.9858 1.013552  1.019169E-5 
291 -10.3805 1.016544  1.252561E-5 
292 -4.0742 1.016213  1.235732E-5 
293 5.5192 1.009456  7.255061E-6 
294 -11.0303 1.007594  5.865758E-6 
295 -12.7120 1.002444  1.899940E-6 
296 6.9715 1.038785  3.035750E-5 
297 -9.4250 1.008269  6.514963E-6 
298 11.2522 1.011550  9.160129E-6 
299 10.6789 1.002249  1.795095E-6 
300 -12.7120 1.027931  2.244499E-5 
301 4.2579 1.024399  1.973527E-5 
302 3.2259 1.025345  2.063380E-5 
303 -4.9150 1.009305  7.624638E-6 
304 -3.3098 1.031765  2.619872E-5 
305 5.3281 1.024376  2.023519E-5 
306 -4.9915 1.014562  1.216598E-5 
307 -15.1963 1.011043  9.285853E-6 
308 -8.3166 1.010660  9.021154E-6 
309 -1.5516 1.003132  2.667745E-6 
310 -4.4564 1.018522  1.587678E-5 
311 16.4884 1.003860  3.330013E-6 
312 12.9721 0.997339 -2.310462E-6 
313 12.8193 1.024820  2.168455E-5 
314 -4.8768 1.021554  1.895010E-5 
315 15.0361 1.018329  1.621714E-5 
316 -4.9532 1.000579  5.153375E-7 
317 1.3149 1.026746  2.396242E-5 
318 -13.2853 1.025338  2.284339E-5 
319 12.7046 1.025003  2.268238E-5 
320 7.8888 1.015246  1.391733E-5 
321 -1.2458 1.032191  2.956920E-5 
322 1.3914 1.021284  1.967163E-5 
323 5.7867 1.015938  1.482215E-5 
324 -2.5836 1.014883  1.392629E-5 
325 10.7936 1.010650  1.002729E-5 
326 -2.6982 1.016666  1.578739E-5 
327 -10.2659 1.027628  2.633259E-5 
328 8.8061 1.003189  3.057837E-6 
329 12.1313 1.023635  2.280302E-5 
330 -8.6224 1.005320  5.163454E-6 
331 18.2466 0.987743 -1.196920E-5 
332 -0.6725 1.019657  1.931208E-5 
333 -11.4125 1.039467  3.900991E-5 
334 -0.5579 1.028720  2.855836E-5 
335 -10.1512 1.014554  1.455921E-5 
336 14.7303 1.003973  3.997756E-6 
337 -4.1506 0.990859 -9.254350E-6 
338 -11.1832 1.001015  1.033684E-6 
339 -3.5009 1.018947  1.941085E-5 
340 -18.5597 1.012930  1.332529E-5 
341 4.8312 1.005053  5.238451E-6 
342 -4.9532 1.002650  2.763464E-6 
343 1.0092 1.003714  3.895725E-6 
344 -4.8003 1.032956  3.477404E-5 
345 5.5192 1.017978  1.908136E-5 
346 -4.1506 1.024279  2.591921E-5 
347 9.4177 1.017278  1.855310E-5 
348 -3.3098 1.031691  3.422831E-5 
349 -0.5961 1.010926  1.187005E-5 
350 -7.6287 1.000591  6.456895E-7 
351 -4.7239 0.999421 -6.361363E-7 
352 5.2516 1.017792  1.966580E-5 
353 -11.7182 1.018810  2.091110E-5 
354 15.6094 1.029054  3.248480E-5 
355 -10.6481 1.006632  7.458302E-6 
356 -4.1124 1.017330  1.959894E-5 
357 -6.4820 1.035203  4.004043E-5 
358 8.0035 0.997904 -2.397685E-6 
359 -3.5009 1.029434  3.386026E-5 
360 -10.7627 1.009326  1.078913E-5 
361 6.8187 1.010889  1.266909E-5 
362 -7.6287 1.036397  4.258543E-5 
363 -3.6537 1.011275  1.326694E-5 
364 -13.0942 0.996578 -4.048452E-6 
365 15.4565 1.013081  1.556523E-5 
366 -5.3737 1.001901  2.274606E-6 
367 -15.5021 0.994725 -6.346817E-6 
368 5.1752 1.029795  3.604950E-5 
369 -11.6418 1.026364  3.207500E-5 
370 9.9910 1.014523  1.776725E-5 
371 4.3726 1.012770  1.570938E-5 
372 -7.1700 1.002466  3.050668E-6 
373 1.9264 1.002228  2.770799E-6 
374 -4.1124 1.002064  2.581811E-6 
375 6.3982 1.035644  4.482006E-5 
376 2.0411 1.017608  2.226256E-5 
377 -10.9156 1.010070  1.280148E-5 
378 -9.9983 1.020062  2.564235E-5 
379 -16.6105 1.019120  2.457047E-5 
380 -12.3680 1.005513  7.122775E-6 
381 -2.3925 1.026117  3.392771E-5 
382 -13.0177 1.000330  4.304345E-7 
383 0.2065 1.014791  1.942256E-5 
384 1.2385 1.010586  1.397541E-5 
385 -5.5265 1.008118  1.077468E-5 
386 2.1558 1.014823  1.977872E-5 
387 -0.1375 1.010586  1.420150E-5 
388 6.3218 1.005320  7.174775E-6 
389 0.4741 1.031457  4.264982E-5 
390 -11.4507 1.021327  2.906831E-5 
391 6.0543 1.023384  3.204109E-5 
392 -10.5334 1.019651  2.706771E-5 
393 -6.4438 1.037704  5.220993E-5 
394 -7.7815 1.031595  4.397997E-5 
395 10.2585 1.002031  2.841590E-6 
396 7.3155 1.008864  1.246837E-5 
397 10.3349 1.024050  3.400730E-5 
398 7.0480 1.020801  2.956547E-5 
399 14.6538 1.011252  1.607725E-5 
400 -17.3749 1.013846  1.988540E-5 
401 7.0098 1.016300  2.353140E-5 
402 14.4245 1.021759  3.157452E-5 
403 6.1307 1.001257  1.834031E-6 
404 15.8387 0.999505 -7.255213E-7 
405 14.3481 1.002650  3.905766E-6 
406 -4.8768 1.003949  5.849748E-6 
407 -5.6794 1.018143  2.701142E-5 
408 -5.6030 1.014245  2.131614E-5 
409 11.5198 0.992504 -1.127447E-5 
410 5.3663 1.014749  2.229582E-5 
411 12.9721 1.030844  4.686346E-5 
412 -1.8574 1.013869  2.117946E-5 
413 -15.5785 1.022113  3.393920E-5 
414 2.6909 1.044239  6.824168E-5 
415 18.4377 1.018323  2.840678E-5 
416 0.5123 1.019932  3.105737E-5 
417 12.3606 0.997047 -4.624442E-6 
418 16.6031 0.987113 -2.028160E-5 
419 -5.8705 1.014052  2.222531E-5 
420 8.8826 1.029057  4.618739E-5 
421 -14.8523 1.013703  2.189024E-5 
422 -5.3354 1.013460  2.160912E-5 
423 -2.5071 0.997497 -4.038389E-6 
424 3.7992 1.012314  1.996484E-5 
425 12.3988 1.026183  4.266027E-5 
426 -2.8511 1.000588  9.624339E-7 
427 -11.2596 0.986789 -2.173733E-5 
428 -10.2659 1.018698  3.091776E-5 
429 2.6144 1.009462  1.572126E-5 
430 5.4045 1.018310  3.057266E-5 
431 -9.3104 1.020975  3.519337E-5 
432 -14.2790 1.025564  4.310268E-5 
433 2.9966 1.018625  3.155490E-5 
434 -6.6732 1.020794  3.540161E-5 
435 -7.7051 1.021800  3.729417E-5 
436 -12.7884 1.008044  1.382811E-5 
437 1.3914 1.022165  3.828439E-5 
438 1.2767 1.029855  5.181668E-5 
439 -13.1324 1.001411  2.461367E-6 
440 5.6338 1.006926  1.213595E-5 
441 0.4358 1.013123  2.310520E-5 
442 18.2466 1.024578  4.348078E-5 
443 2.6526 1.012524  2.226237E-5 
444 5.0605 1.030742  5.490402E-5 
445 6.1307 1.018796  3.372826E-5 
446 -5.5648 1.027282  4.918814E-5 
447 2.1558 1.030325  5.493324E-5 
448 7.1626 1.023607  4.296569E-5 
449 -3.1951 1.011026  2.016229E-5 
450 -6.6732 0.992464 -1.384512E-5 
451 10.8318 1.016717  3.085775E-5 
452 -9.8454 1.007126  1.321581E-5 
453 14.0423 1.008038  1.497668E-5 
454 -3.1569 1.001900  3.556865E-6 
455 -10.0748 1.026166  4.920808E-5 
456 -14.8141 1.001438  2.717192E-6 
457 -5.3354 1.000550  1.043829E-6 
458 -5.8323 1.004284  8.169956E-6 
459 -11.5271 0.991489 -1.630558E-5 
460 -5.7176 1.031516  6.065647E-5 
461 9.0737 1.012169  2.352896E-5 
462 2.7673 1.001275  2.475947E-6 
463 -13.2471 1.009981  1.947686E-5 
464 -11.7182 1.021825  4.278304E-5 
465 -12.8266 1.005267  1.037200E-5 
466 17.1764 1.023172  4.583977E-5 
467 -15.1581 1.021634  4.299238E-5 
468 -3.9213 1.022686  4.528809E-5 
469 1.6589 1.020519  4.114815E-5 
470 1.7736 1.027822  5.604577E-5 
471 11.2140 1.019311  3.907661E-5 
472 2.0411 1.021552  4.381024E-5 
473 3.9139 0.993398 -1.348099E-5 
474 16.6413 1.036679  7.523174E-5 
475 -11.1832 1.025105  5.172509E-5 
476 3.9521 1.025052  5.184648E-5 
477 4.6019 0.995371 -9.622858E-6 
478 -3.1569 0.999441 -1.166789E-6 
479 5.1752 1.014180  2.974123E-5 
480 -14.4319 1.020130  4.240973E-5 
481 18.1319 1.004015  8.497243E-6 
482 6.2454 1.005907  1.255462E-5 
483 -14.9288 1.008863  1.892222E-5 
484 1.5442 1.017917  3.842242E-5 
485 -8.2020 0.998704 -2.790993E-6 
486 -6.0234 1.026509  5.734843E-5 
487 -3.0804 1.008368  1.818244E-5 
488 2.5380 1.019966  4.357540E-5 
489 -1.0547 1.005676  1.244197E-5 
490 11.2522 1.019758  4.349891E-5 
491 -2.4689 1.006530  1.443874E-5 
492 -5.5648 1.015782  3.504890E-5 
493 -15.1199 1.017185  3.833158E-5 
494 9.2265 1.009721  2.177684E-5 
495 -8.5460 1.028573  6.428815E-5 
496 11.7873 1.010315  2.330919E-5 
497 -2.2014 1.008481  1.924665E-5 
498 -3.2715 1.012935  2.948356E-5 
499 6.5129 1.008015  1.834766E-5 
500 -5.7559 1.013848  3.183607E-5 
501 0.0919 0.998740 -2.909432E-6 
502 14.8450 1.002003  4.644727E-6 
503 12.8957 1.019296  4.493453E-5 
504 14.6538 1.026739  6.253233E-5 
505 -0.9783 1.003132  7.354640E-6 
506 -10.7627 1.028403  6.699095E-5 
507 3.1877 1.015682  3.714498E-5 
508 4.9076 1.008080  1.922009E-5 
509 -1.5134 0.999509 -1.173125E-6 
510 17.2911 1.028181  6.760190E-5 
511 15.7622 1.015389  3.707259E-5 
512 -1.7045 1.032250  7.801765E-5 
513 6.1307 1.000373  9.051390E-7 
514 -4.5328 1.018715  4.565683E-5 
515 3.0348 1.009419  2.307536E-5 
516 6.7804 1.003656  8.994324E-6 
517 -4.5710 1.014322  3.538099E-5 
518 1.9647 1.017137  4.251101E-5 
519 -5.1443 1.004530  1.128496E-5 
520 12.8193 1.022349  5.590245E-5 
521 4.8694 1.021238  5.334460E-5 
522 -5.7941 1.010979  2.769037E-5 
523 11.4816 1.025994  6.583181E-5 
524 10.0674 1.019960  5.076122E-5 
525 12.8575 1.022472  5.738344E-5 
526 7.3920 0.993961 -1.548466E-5 
527 3.6846 1.019489  5.017746E-5 
528 5.3281 1.005925  1.531779E-5 
529 6.0543 1.027631  7.172478E-5 
530 -13.8204 1.028017  7.302508E-5 
531 -11.8329 1.004660  1.219578E-5 
532 14.8067 0.997122 -7.564060E-6 
533 -15.0816 1.004945  1.304814E-5 
534 1.5442 1.006464  1.712387E-5 
535 15.0743 1.000558  1.484670E-6 
536 -4.1888 1.008248  2.202788E-5 
537 6.6658 1.012206  3.273248E-5 
538 -11.5654 1.015554  4.187889E-5 
539 -2.6218 0.991884 -2.193954E-5 
540 4.4872 1.019610  5.322678E-5 
541 4.1815 1.013279  3.618722E-5 
542 -4.7239 1.031511  8.621750E-5 
543 -11.1832 0.991160 -2.428533E-5 
544 1.2385 1.031654  8.730355E-5 
545 -13.3999 1.013105  3.628864E-5 
546 -0.0228 1.009213  2.561351E-5 
547 -12.1005 1.012260  3.422078E-5 
548 -9.8837 1.018268  5.119441E-5 
549 -13.4764 0.996233 -1.059849E-5 
550 0.8181 0.998425 -4.449505E-6 
551 -14.7377 1.005360  1.519927E-5 
552 4.1050 1.018918  5.385967E-5 
553 -12.2916 1.006569  1.877596E-5 
554 18.3612 1.006884  1.975437E-5 
555 -5.6794 1.020209  5.821975E-5 
