Filename:	Wind_Profile_100_20181024_060729.hpl
System ID:	100
Number of gates:	556
Range gate length (m):	18.0
Gate length (pts):	6
Pulses/ray:	1500
No. of rays in file:	3
Scan type:	Wind profile
Focus range:	65535
Start time:	20181024 06:07:36.61
Resolution (m/s):	0.0382
Altitude of measurement (center of gate) = (range gate + 0.5) * Gate length
Data line 1: Decimal time (hours)  Azimuth (degrees)  Elevation (degrees) Pitch (degrees) Roll (degrees)
f9.6,1x,f6.2,1x,f6.2
Data line 2: Range Gate  Doppler (m/s)  Intensity (SNR + 1)  Beta (m-1 sr-1)
i3,1x,f6.4,1x,f8.6,1x,e12.6 - repeat for no. gates
****
 6.126808  91.00  90.01 -0.00 0.09
  0 -0.2903 0.931535 -3.854922E-6
  1 -1.4752 0.931605 -3.853552E-6
  2 -5.6412 1.056986  3.213731E-6
  3 -0.7490 1.047097  2.659205E-6
  4 -3.1569 1.021566  1.219425E-6
  5 3.6081 1.033135  1.876739E-6
  6 0.2065 1.053044  3.010255E-6
  7 -1.8956 1.042307  2.406226E-6
  8 -0.7490 1.027856  1.588170E-6
  9 -1.6663 1.039651  2.266826E-6
 10 -0.2139 1.039385  2.258246E-6
 11 -0.6725 1.022387  1.287729E-6
 12 0.3212 1.037595  2.169964E-6
 13 0.5887 1.028252  1.636707E-6
 14 0.0154 1.026791  1.558173E-6
 15 -2.3925 1.019382  1.131983E-6
 16 -4.9532 1.009950  5.836955E-7
 17 -1.4370 1.043258  2.549327E-6
 18 0.4358 1.004350  2.575881E-7
 19 0.6270 1.036982  2.201228E-6
 20 -2.5071 1.022677  1.356924E-6
 21 -1.5898 1.018265  1.098975E-6
 22 0.4358 1.009373  5.672069E-7
 23 -18.9801 1.043254  2.633104E-6
 24 9.7616 1.026043  1.595218E-6
 25 0.5505 1.015405  9.496020E-7
 26 -1.3987 1.025554  1.585582E-6
 27 -1.5898 1.034723  2.169163E-6
 28 -0.7108 1.025024  1.574160E-6
 29 -0.8636 1.009637  6.105858E-7
 30 -0.9019 1.023202  1.480787E-6
 31 -1.2076 1.031561  2.029474E-6
 32 -0.3668 1.017674  1.145243E-6
 33 -0.5961 1.054282  3.545116E-6
 34 -2.6982 1.025015  1.646897E-6
 35 -0.9401 1.028902  1.918433E-6
 36 -1.3987 1.000359  2.401972E-8
 37 -0.2139 0.997315 -1.812230E-7
 38 -16.6105 1.006934  4.721429E-7
 39 8.1182 1.016353  1.123315E-6
 40 9.9145 1.002704  1.874100E-7
 41 -1.2076 0.988169 -8.275172E-7
 42 9.6088 0.999104 -6.324338E-8
 43 -6.8260 1.019228  1.370061E-6
 44 7.5066 0.994545 -3.923810E-7
 45 -6.9025 1.032578  2.365880E-6
 46 8.8061 1.034173  2.505957E-6
 47 -6.5203 1.026765  1.982094E-6
 48 -0.8254 1.019252  1.439955E-6
 49 -3.0040 1.038784  2.930094E-6
 50 -6.3674 1.009669  7.379551E-7
 51 -2.3542 1.014434  1.112965E-6
 52 -0.2521 1.012352  9.622490E-7
 53 10.0674 1.009654  7.600082E-7
 54 0.5887 1.012017  9.560038E-7
 55 9.0354 1.008639  6.945542E-7
 56 -16.9927 1.001741  1.414755E-7
 57 12.8575 1.015225  1.250615E-6
 58 -3.8448 1.014700  1.220649E-6
 59 4.0668 1.011022  9.252637E-7
 60 -4.6092 1.032448  2.753835E-6
 61 -15.5785 0.996798 -2.747336E-7
 62 -19.4388 1.022649  1.965189E-6
 63 -1.9338 1.005357  4.700487E-7
 64 -4.2653 1.026569  2.357340E-6
 65 -6.4056 1.024708  2.216987E-6
 66 -6.3674 1.029123  2.642765E-6
 67 -18.1775 1.011234  1.031023E-6
 68 1.5825 0.999888 -1.040654E-8
 69 -1.8574 1.028860  2.709834E-6
 70 -17.1455 1.016267  1.545000E-6
 71 -1.8192 1.002075  1.993264E-7
 72 6.7422 1.002282  2.217833E-7
 73 9.0737 1.006933  6.816536E-7
 74 9.3794 1.012244  1.217830E-6
 75 -2.0867 1.013227  1.330967E-6
 76 -4.8003 1.010409  1.059613E-6
 77 9.6852 1.004528  4.663629E-7
 78 -0.9401 1.015487  1.613737E-6
 79 -1.0165 1.010380  1.094273E-6
 80 -8.2402 1.019865  2.118899E-6
 81 9.1501 1.008254  8.907376E-7
 82 9.1883 1.004586  5.007570E-7
 83 8.5768 1.008286  9.155047E-7
 84 -5.9470 1.022895  2.559340E-6
 85 -15.4256 1.018627  2.106839E-6
 86 0.7034 1.014495  1.658910E-6
 87 8.3475 1.026745  3.096996E-6
 88 4.9459 1.019835  2.323965E-6
 89 -1.9338 1.015794  1.872373E-6
 90 -3.7684 0.988384 -1.393340E-6
 91 -15.4638 0.982127 -2.169212E-6
 92 -4.5328 1.015649  1.921732E-6
 93 11.0611 1.022275  2.767724E-6
 94 -16.4958 1.006738  8.471047E-7
 95 -6.3674 1.022033  2.802613E-6
 96 -4.9915 0.986357 -1.755798E-6
 97 -5.7941 1.009191  1.196795E-6
 98 8.1182 1.017485  2.303545E-6
 99 8.1564 0.994550 -7.263974E-7
100 -1.5898 1.004739  6.390311E-7
101 2.2704 1.016904  2.306262E-6
102 10.1438 1.014856  2.050514E-6
103 8.7297 0.996183 -5.329680E-7
104 9.3030 1.019739  2.788498E-6
105 -16.9162 1.004223  6.036051E-7
106 -3.9595 1.014400  2.081866E-6
107 -2.8129 0.999968 -4.690431E-9
108 -2.8129 1.005592  8.273478E-7
109 -6.7878 1.029825  4.463749E-6
110 -17.3367 1.022826  3.455624E-6
111 -5.2972 1.024900  3.813028E-6
112 -4.3799 0.994720 -8.178442E-7
113 -2.5836 1.022838  3.578107E-6
114 -7.9726 1.008996  1.425603E-6
115 7.8124 1.023791  3.813207E-6
116 -1.0547 1.020828  3.376288E-6
117 -16.9544 0.989560 -1.711662E-6
118 -6.3674 1.017586  2.915998E-6
119 -18.1011 1.022102  3.706299E-6
120 10.1438 0.997801 -3.728955E-7
121 8.9208 1.039693  6.807147E-6
122 9.4941 1.016059  2.785014E-6
123 9.0354 1.006243  1.094894E-6
124 -10.7627 0.994041 -1.056773E-6
125 -11.1067 1.015267  2.737467E-6
126 -16.3811 1.015292  2.772474E-6
127 9.3030 0.995378 -8.472173E-7
128 -2.1631 1.011425  2.117607E-6
129 10.7936 1.018614  3.488098E-6
130 -4.2653 1.014007  2.653614E-6
131 -17.2602 1.005510  1.055320E-6
132 -4.4946 1.006176  1.195869E-6
133 5.3663 1.016641  3.257315E-6
134 -14.5083 1.005996  1.186385E-6
135 -15.8461 1.010548  2.109787E-6
136 10.3732 1.021203  4.286997E-6
137 -3.0804 0.998919 -2.209967E-7
138 -0.3286 1.011468  2.368899E-6
139 9.7616 1.015547  3.246037E-6
140 -6.1763 1.018189  3.838309E-6
141 -18.2539 0.998234 -3.765910E-7
142 8.9972 1.045377  9.780481E-6
143 -2.9275 1.020347  4.431938E-6
144 -1.0547 1.031512  6.936541E-6
145 5.6338 0.995811 -9.318529E-7
146 -5.4501 1.014265  3.206442E-6
147 -4.9915 1.007047  1.600578E-6
148 10.2967 1.028726  6.592814E-6
149 -5.0297 1.000819  1.899334E-7
150 4.8312 0.993845 -1.442219E-6
151 -12.3298 0.992471 -1.782220E-6
152 -3.8448 1.025458  6.088687E-6
153 9.1119 1.028793  6.956972E-6
154 -14.6230 1.045763  1.117058E-5
155 -3.9213 0.994020 -1.474498E-6
156 9.6088 0.999846 -3.828387E-8
157 -7.8580 1.014862  3.739698E-6
158 -5.1443 1.017566  4.464892E-6
159 7.4302 1.012038  3.090621E-6
160 -2.5836 1.036344  9.424692E-6
161 -15.4256 1.010910  2.857371E-6
162 -2.2396 1.030574  8.087842E-6
163 -18.4833 1.006431  1.717994E-6
164 -3.7302 1.007192  1.940559E-6
165 9.9910 0.988701 -3.078803E-6
166 -3.6155 1.009795  2.695370E-6
167 -5.1443 1.010782  2.995902E-6
168 -5.5265 1.006511  1.826888E-6
169 9.7234 1.011833  3.352527E-6
170 -5.0297 1.009451  2.703826E-6
171 8.3857 1.005765  1.665301E-6
172 7.8506 0.992702 -2.128557E-6
173 -7.9344 1.010662  3.139563E-6
174 -6.2909 1.030249  8.992980E-6
175 -4.2270 1.002220  6.664449E-7
176 -16.4194 1.031596  9.573714E-6
177 -17.4513 0.998399 -4.898179E-7
178 -0.8636 1.021420  6.614204E-6
179 9.1119 1.014202  4.426716E-6
180 -4.2653 1.026915  8.468533E-6
181 8.5768 1.003366  1.068999E-6
182 -7.6669 0.995901 -1.314116E-6
183 -12.7120 1.000257  8.299416E-8
184 -17.8335 0.992254 -2.529419E-6
185 -4.3799 1.002581  8.508046E-7
186 -19.7063 1.009647  3.208878E-6
187 -19.6681 1.002493  8.368602E-7
188 -15.7314 1.021509  7.286528E-6
189 7.2009 1.000054  1.857870E-8
190 8.3857 1.040429  1.394745E-5
191 9.4559 1.015283  5.320362E-6
192 -16.8398 1.008845  3.106997E-6
193 -6.2527 1.013927  4.936233E-6
194 -15.0816 1.027753  9.925504E-6
195 -3.6155 1.016510  5.957345E-6
196 9.2648 1.012674  4.614343E-6
197 -2.0103 1.010261  3.768959E-6
198 -3.8448 1.005408  2.004201E-6
199 -17.0309 1.010484  3.919628E-6
200 10.9847 1.011032  4.160644E-6
201 -16.9927 1.010803  4.110263E-6
202 7.5448 1.014857  5.702248E-6
203 -7.7433 1.012240  4.738754E-6
204 10.1056 1.007915  3.090981E-6
205 -5.2208 1.017125  6.745919E-6
206 5.5192 1.021659  8.605848E-6
207 8.6532 0.995012 -1.998962E-6
208 -3.0040 1.046375  1.874512E-5
209 8.5768 1.021620  8.813794E-6
210 -2.5453 1.021176  8.706844E-6
211 -3.7684 1.008981  3.724118E-6
212 -3.8831 1.001869  7.817163E-7
213 1.4678 1.002367  9.981125E-7
214 -6.2527 1.014411  6.128726E-6
215 -16.6869 1.014923  6.399784E-6
216 -17.1073 1.028319  1.224647E-5
217 -17.1073 1.003610  1.574172E-6
218 9.7616 1.017762  7.809868E-6
219 -3.4244 1.017718  7.855447E-6
220 -0.8254 1.001812  8.100276E-7
221 7.5066 1.011304  5.094979E-6
222 -7.5522 1.013101  5.953209E-6
223 -16.4576 1.011689  5.355463E-6
224 5.8249 1.016169  7.468617E-6
225 -12.6355 0.997305 -1.254776E-6
226 -15.2345 0.994929 -2.380779E-6
227 -8.5077 1.016203  7.668241E-6
228 -7.7051 1.018721  8.931447E-6
229 -2.9658 1.018261  8.782134E-6
230 -3.1187 0.996479 -1.706971E-6
231 -16.7251 0.998492 -7.367489E-7
232 10.0674 1.036889  1.816992E-5
233 -4.3417 1.018877  9.371847E-6
234 -6.0616 1.020980  1.049841E-5
235 -12.7120 0.996219 -1.906823E-6
236 12.9339 1.001601  8.138979E-7
237 -2.1249 1.022303  1.142646E-5
238 8.9590 1.006306  3.256300E-6
239 9.8381 1.030187  1.570854E-5
240 -16.1136 1.004832  2.534181E-6
241 -17.2984 1.001763  9.318613E-7
242 -4.8768 1.010710  5.703911E-6
243 9.0354 1.038047  2.041973E-5
244 0.1683 1.009510  5.143077E-6
245 7.7360 0.998956 -5.690721E-7
246 -0.3668 1.006339  3.480818E-6
247 -1.7809 1.021663  1.198664E-5
248 8.7297 1.030907  1.723178E-5
249 -1.3605 1.013357  7.503551E-6
250 9.1883 0.997381 -1.482343E-6
251 9.6852 1.001875  1.069070E-6
252 -17.9482 0.992970 -4.039311E-6
253 3.3024 1.013367  7.737494E-6
254 -17.9100 1.003258  1.899982E-6
255 0.7416 1.015255  8.962646E-6
256 -3.0422 0.988877 -6.583410E-6
257 -15.2345 1.020912  1.246940E-5
258 -17.7189 0.987883 -7.278327E-6
259 9.6470 1.001402  8.483280E-7
260 -0.4814 0.997675 -1.417471E-6
261 -3.3862 1.001613  9.903882E-7
262 9.9527 0.987423 -7.778406E-6
263 8.7679 1.005675  3.535288E-6
264 -6.0616 1.038220  2.398271E-5
265 9.9910 0.989552 -6.603474E-6
266 -3.2333 1.023094  1.470148E-5
267 8.5768 1.027083  1.736488E-5
268 -6.4056 0.987513 -8.063880E-6
269 9.6088 1.027094  1.762196E-5
270 -17.4131 1.027816  1.822070E-5
271 -2.6218 0.989851 -6.695092E-6
272 10.6025 1.011997  7.970804E-6
273 -4.4946 1.036066  2.413071E-5
274 -16.3047 1.020452  1.378048E-5
275 -17.4895 1.025937  1.759885E-5
276 -6.6349 1.009105  6.221135E-6
277 -6.4056 1.019777  1.360765E-5
278 -16.3429 1.034845  2.414276E-5
279 -6.8260 1.031209  2.177436E-5
280 -4.8768 1.008389  5.893297E-6
281 -4.1888 1.013451  9.515028E-6
282 -0.9401 1.017942  1.277930E-5
283 -16.4958 1.010348  7.421153E-6
284 10.3349 1.025304  1.827200E-5
285 -17.0691 1.016136  1.173106E-5
286 -16.6487 0.995321 -3.424723E-6
287 10.7171 0.990011 -7.361806E-6
288 -17.8717 1.003948  2.929477E-6
289 8.7297 0.995720 -3.197032E-6
290 -2.1631 1.014779  1.111448E-5
291 -2.8893 0.998907 -8.277527E-7
292 10.4114 1.031512  2.401790E-5
293 -6.3292 1.010997  8.438068E-6
294 -9.4632 1.016074  1.241575E-5
295 -15.0052 0.993475 -5.073793E-6
296 0.2447 1.005027  3.934540E-6
297 9.7616 1.000644  5.077558E-7
298 9.4177 1.020856  1.654076E-5
299 10.9847 1.024218  1.933391E-5
300 0.3594 1.030540  2.454082E-5
301 -5.9470 1.007308  5.910866E-6
302 7.5066 1.008524  6.939476E-6
303 0.3594 1.020533  1.682581E-5
304 19.0492 1.041238  3.401215E-5
305 -4.8768 1.005997  4.978153E-6
306 -1.3223 1.007838  6.548264E-6
307 -5.4501 1.013600  1.143629E-5
308 -16.1900 1.009504  8.042838E-6
309 -7.9344 1.012290  1.046728E-5
310 7.0862 1.013969  1.197404E-5
311 -13.9733 0.993406 -5.688104E-6
312 -19.1330 0.994476 -4.795546E-6
313 -5.9087 1.015459  1.350608E-5
314 1.0092 1.028367  2.493993E-5
315 -17.3367 0.993966 -5.338566E-6
316 -15.5403 1.004762  4.239448E-6
317 -15.9225 1.032203  2.885184E-5
318 -17.6424 0.994355 -5.089423E-6
319 9.6852 1.008717  7.908280E-6
320 9.6852 1.015454  1.410757E-5
321 10.8318 1.005656  5.195094E-6
322 -7.1318 1.010200  9.427740E-6
323 -15.8461 1.020402  1.897311E-5
324 0.2830 1.021277  1.990915E-5
325 -17.0309 1.006251  5.885127E-6
326 1.3531 0.997048 -2.796555E-6
327 9.1883 0.992698 -6.959154E-6
328 -0.4432 1.004125  3.955938E-6
329 -8.9282 1.027194  2.623589E-5
330 0.8181 1.024711  2.398558E-5
331 -0.7108 0.992544 -7.280928E-6
332 -11.4889 1.015510  1.523854E-5
333 -3.0422 1.018729  1.851247E-5
334 7.6595 1.008332  8.285374E-6
335 -1.6663 1.012187  1.219121E-5
336 -16.5722 0.991133 -8.923778E-6
337 -16.5722 1.018197  1.842268E-5
338 2.8437 1.002470  2.515528E-6
339 4.8312 1.020639  2.114480E-5
340 -18.3304 1.015865  1.635030E-5
341 -3.3480 0.994533 -5.667499E-6
342 7.6595 1.004870  5.078525E-6
343 -5.4119 1.014468  1.517616E-5
344 10.1438 1.030891  3.259532E-5
345 -14.3555 1.009733  1.033038E-5
346 11.0229 1.013953  1.489566E-5
347 -15.9225 1.024624  2.644187E-5
348 -9.2339 0.995640 -4.709495E-6
349 -6.1381 1.021409  2.325790E-5
350 -5.3737 1.012638  1.380944E-5
351 -6.9407 1.005405  5.940475E-6
352 -18.5979 1.009698  1.071946E-5
353 9.9145 1.009213  1.024220E-5
354 7.7360 1.022375  2.501810E-5
355 -4.9150 1.026355  2.963714E-5
356 -6.7878 1.002613  2.955669E-6
357 -2.1631 1.036630  4.166355E-5
358 -6.7496 1.018981  2.171167E-5
359 9.4941 1.025464  2.929365E-5
360 -15.0816 0.997182 -3.260373E-6
361 -14.3937 1.029767  3.463250E-5
362 -7.9344 1.031564  3.693095E-5
363 -7.0171 1.012651  1.488552E-5
364 -14.3172 1.032543  3.850604E-5
365 9.6470 1.001170  1.392455E-6
366 -15.1581 1.017865  2.137629E-5
367 -12.1769 1.010212  1.228686E-5
368 7.1244 1.021419  2.591497E-5
369 -3.1569 1.024371  2.965071E-5
370 -16.8016 0.988524 -1.403934E-5
371 -18.2539 1.022905  2.817652E-5
372 -15.6167 1.009747  1.205614E-5
373 -17.8335 1.008847  1.100378E-5
374 7.6213 1.004370  5.464965E-6
375 -16.9162 1.018934  2.380894E-5
376 -0.8254 1.013723  1.734992E-5
377 -1.2841 1.022890  2.909865E-5
378 -16.0754 1.020869  2.667401E-5
379 10.9847 1.023684  3.043614E-5
380 -4.1888 1.008155  1.053694E-5
381 -5.9470 1.042035  5.460516E-5
382 8.4621 0.999870 -1.699074E-7
383 -8.1637 1.007518  9.872207E-6
384 -2.3925 1.010333  1.364063E-5
385 -14.3937 0.995473 -6.008515E-6
386 10.5260 1.003249  4.335270E-6
387 -5.3354 1.008851  1.187341E-5
388 -3.6537 1.034533  4.657190E-5
389 -3.3098 1.021511  2.916419E-5
390 -5.5648 1.017150  2.337585E-5
391 1.0092 1.020570  2.818568E-5
392 -7.2465 0.997621 -3.276428E-6
393 -4.9532 1.026620  3.686182E-5
394 -17.8335 1.011682  1.626169E-5
395 9.4941 1.014353  2.008378E-5
396 8.5768 1.003679  5.174767E-6
397 -6.0998 1.002319  3.279059E-6
398 10.7936 1.037918  5.389538E-5
399 8.0417 0.997527 -3.533975E-6
400 -2.7364 1.000451  6.472241E-7
401 8.9590 1.000949  1.370030E-6
402 7.6595 1.023421  3.398686E-5
403 -6.0998 1.014672  2.140128E-5
404 -18.7508 1.013073  1.916652E-5
405 -16.9544 1.007849  1.156693E-5
406 -5.2590 1.010311  1.527247E-5
407 -17.0309 1.020186  3.005302E-5
408 -4.6857 1.025907  3.876768E-5
409 -16.6105 0.994364 -8.476984E-6
410 7.4302 1.008714  1.317289E-5
411 9.3412 1.038585  5.862550E-5
412 -4.5328 1.012955  1.978297E-5
413 -16.4576 1.025265  3.877712E-5
414 -16.7633 1.006035  9.308690E-6
415 -6.7114 1.008804  1.364897E-5
416 4.2197 1.013648  2.126564E-5
417 -12.7120 0.997293 -4.239743E-6
418 -6.8260 0.996860 -4.941073E-6
419 -8.5842 0.994278 -9.050367E-6
420 -0.5961 1.023582  3.748405E-5
421 9.1883 1.009658  1.542879E-5
422 9.7234 1.017714  2.843791E-5
423 8.1564 1.015265  2.462789E-5
424 8.6150 0.986392 -2.206236E-5
425 -1.2458 1.030588  4.983775E-5
426 -16.2283 1.014538  2.380412E-5
427 -2.0103 0.988462 -1.898505E-5
428 -2.8511 1.014588  2.412158E-5
429 -5.1443 0.998706 -2.150449E-6
430 10.6407 1.036569  6.106103E-5
431 8.5768 1.013303  2.232008E-5
432 -16.8780 1.006304  1.062930E-5
433 6.2071 1.011085  1.878141E-5
434 -8.1637 1.025291  4.305780E-5
435 0.2065 0.996718 -5.614061E-6
436 -18.2922 1.017300  2.973851E-5
437 2.8437 1.006562  1.133352E-5
438 -3.5391 1.012158  2.110085E-5
439 -6.0234 0.990402 -1.673789E-5
440 -16.9544 1.017412  3.051100E-5
441 7.8888 1.022892  4.030515E-5
442 10.3732 0.995510 -7.942843E-6
443 -4.7621 1.006189  1.100044E-5
444 -4.3417 0.991548 -1.509555E-5
445 -2.0103 1.023890  4.287060E-5
446 -3.0422 1.011934  2.151637E-5
447 -18.3686 1.025454  4.610927E-5
448 8.5386 1.011517  2.096230E-5
449 -1.3987 1.016044  2.933811E-5
450 -5.8705 0.963271 -6.748043E-5
451 -5.7559 1.011577  2.137040E-5
452 9.9910 0.987192 -2.375358E-5
453 2.2704 1.011979  2.232008E-5
454 8.8826 0.984892 -2.828160E-5
455 9.2648 1.022610  4.252180E-5
456 -5.5648 1.023082  4.361045E-5
457 -17.7571 1.005753  1.091931E-5
458 -16.9544 0.994366 -1.074310E-5
459 -16.6105 1.002815  5.393649E-6
460 9.4941 0.998885 -2.145856E-6
461 -4.6092 1.008298  1.604466E-5
462 -8.8517 1.022994  4.466320E-5
463 11.2522 1.030307  5.913878E-5
464 12.0931 1.005140  1.007631E-5
465 -5.1826 1.019223  3.785500E-5
466 -8.6988 1.021592  4.271356E-5
467 9.2265 1.003373  6.703123E-6
468 -16.6487 1.018964  3.785734E-5
469 -0.8254 1.012426  2.491817E-5
470 -15.1199 1.003284  6.615560E-6
471 10.4114 1.018056  3.653733E-5
472 -3.6155 0.997578 -4.923662E-6
473 10.6407 0.995336 -9.524235E-6
474 9.1883 1.011580  2.375177E-5
475 -16.4576 0.995183 -9.923724E-6
476 -17.6042 1.010111  2.092503E-5
477 -10.5334 1.018667  3.880582E-5
478 -7.8962 1.007239  1.511515E-5
479 9.6852 1.009984  2.094176E-5
480 -17.2220 1.001398  2.944561E-6
481 -16.5722 0.985547 -3.058533E-5
482 -4.6092 0.998455 -3.284028E-6
483 -5.3354 1.000633  1.350836E-6
484 4.3726 0.999252 -1.604515E-6
485 -17.6806 1.020639  4.445352E-5
486 -3.8831 1.018391  3.978599E-5
487 -2.8511 1.004454  9.678209E-6
488 -5.3354 1.022157  4.835632E-5
489 -13.0942 1.008023  1.758599E-5
490 -1.1312 1.014510  3.194481E-5
491 -15.6932 1.000278  6.141112E-7
492 9.9527 1.020805  4.620495E-5
493 10.3349 1.010413  2.322602E-5
494 -15.4638 1.014405  3.227160E-5
495 0.6652 1.027636  6.217998E-5
496 -7.0554 1.014066  3.178567E-5
497 0.0536 0.983379 -3.772107E-5
498 -5.0679 1.015536  3.541028E-5
499 9.1119 1.018316  4.192798E-5
500 -4.1506 1.026745  6.148544E-5
501 -2.2396 1.024812  5.728600E-5
502 9.7234 1.013315  3.087372E-5
503 -15.8843 1.013375  3.114641E-5
504 10.5260 1.017557  4.105946E-5
505 -4.3417 1.021305  5.003602E-5
506 -4.8003 1.011007  2.596018E-5
507 8.7679 1.008165  1.933949E-5
508 -3.2715 1.026626  6.333408E-5
509 -6.9789 1.027288  6.518450E-5
510 -8.0873 1.009964  2.390125E-5
511 8.2710 1.012845  3.094405E-5
512 -4.4181 1.009958  2.409048E-5
513 -3.3098 0.992084 -1.923060E-5
514 -18.1775 0.998777 -2.984499E-6
515 -16.4958 1.024576  6.020679E-5
516 -7.2847 1.014405  3.543615E-5
517 -16.6869 1.014170  3.500388E-5
518 -3.2715 1.011713  2.905515E-5
519 9.1883 0.997917 -5.188303E-6
520 12.0549 1.015210  3.804522E-5
521 -5.5265 1.010053  2.524960E-5
522 -3.7302 0.997529 -6.232365E-6
523 -2.4307 1.007006  1.774420E-5
524 10.5643 1.024518  6.235197E-5
525 8.1564 1.003422  8.737252E-6
526 -13.1324 1.002246  5.759095E-6
527 -17.2602 0.994303 -1.466760E-5
528 -17.2602 1.002660  6.877453E-6
529 -17.0309 1.013588  3.527122E-5
530 -5.0679 1.031788  8.285464E-5
531 10.7936 1.003784  9.904131E-6
532 -18.0628 1.019341  5.082318E-5
533 -3.1569 1.030507  8.049365E-5
534 8.1946 1.004659  1.234156E-5
535 -6.0616 1.001749  4.652596E-6
536 8.8826 0.988297 -3.125508E-5
537 -3.9595 1.009293  2.491970E-5
538 -0.0610 1.036740  9.892182E-5
539 10.0674 1.019875  5.372718E-5
540 -15.4256 1.012025  3.263886E-5
541 -5.2972 1.001720  4.686674E-6
542 10.7554 1.006594  1.804155E-5
543 8.9590 1.016438  4.515665E-5
544 9.8381 1.020600  5.681476E-5
545 8.5004 1.018851  5.219978E-5
546 -6.2527 1.022768  6.329717E-5
547 10.4878 1.014480  4.041693E-5
548 -8.2020 1.014992  4.201301E-5
549 -3.2333 0.991034 -2.522626E-5
550 9.0737 1.004639  1.310471E-5
551 -7.7433 0.996131 -1.097216E-5
552 -17.3367 1.014449  4.113716E-5
553 -5.9087 0.999509 -1.403751E-6
554 -18.3304 1.011643  3.341022E-5
555 8.7679 1.035974  1.036353E-4
 6.128150 360.00  10.00 -0.00 0.09
  0 -0.2521 0.984809 -8.553444E-7 
  1 -1.2841 0.994014 -3.372804E-7 
  2 -4.8768 1.054421  3.069054E-6 
  3 -4.2270 1.019390  1.094814E-6 
  4 -0.0610 1.016895  9.552884E-7 
  5 -2.8893 1.024877  1.408996E-6 
  6 -1.8956 1.034272  1.944939E-6 
  7 -1.0547 1.009336  5.309599E-7 
  8 10.1056 1.016690  9.515744E-7 
  9 9.2648 1.030281  1.731125E-6 
 10 18.7434 1.031222  1.790203E-6 
 11 18.1701 1.031627  1.819256E-6 
 12 0.0154 1.014738  8.506988E-7 
 13 -0.5197 1.035890  2.079215E-6 
 14 17.6733 1.030137  1.752760E-6 
 15 8.6532 1.012960  7.569334E-7 
 16 16.9471 1.031182  1.829141E-6 
 17 0.7798 1.019971  1.176935E-6 
 18 3.7228 1.024637  1.458992E-6 
 19 -6.7114 1.002749  1.636310E-7 
 20 10.2203 1.000431  2.578352E-8 
 21 13.1250 1.003998  2.405441E-7 
 22 -3.4244 1.003156  1.909690E-7 
 23 11.6344 1.014802  9.010783E-7 
 24 -6.0998 1.027037  1.656064E-6 
 25 -0.3286 1.034321  2.115666E-6 
 26 -1.7045 1.023863  1.480645E-6 
 27 -0.2521 1.041853  2.614560E-6 
 28 13.4308 1.006962  4.379220E-7 
 29 9.9145 0.993768 -3.948415E-7 
 30 -0.7108 1.013115  8.370157E-7 
 31 -2.1631 1.021765  1.399558E-6 
 32 -4.3035 1.019738  1.278977E-6 
 33 -1.6663 1.022792  1.488529E-6 
 34 -1.5516 0.995582 -2.908658E-7 
 35 9.8381 1.041636  2.763652E-6 
 36 17.1382 1.015382  1.029536E-6 
 37 5.7867 1.010820  7.303854E-7 
 38 -1.7427 1.022928  1.561223E-6 
 39 -0.7490 1.005753  3.952172E-7 
 40 -4.9150 1.015779  1.093650E-6 
 41 -18.1393 1.022144  1.548798E-6 
 42 17.9026 1.015349  1.083506E-6 
 43 10.8700 1.011999  8.549257E-7 
 44 -18.4068 1.010284  7.397263E-7 
 45 4.7548 1.021683  1.574706E-6 
 46 -13.2471 1.013103  9.608391E-7 
 47 12.2842 1.027539  2.039431E-6 
 48 -8.5842 1.024695  1.847083E-6 
 49 -11.2978 1.016420  1.240508E-6 
 50 17.0235 1.016794  1.281670E-6 
 51 -18.9419 1.013323  1.027253E-6 
 52 -11.0303 1.006138  4.781565E-7 
 53 -4.1124 1.003968  3.123352E-7 
 54 0.8181 1.035069  2.789864E-6 
 55 -12.5591 1.012540  1.008187E-6 
 56 17.0235 1.010145  8.244558E-7 
 57 0.2447 0.994806 -4.266385E-7 
 58 10.5643 0.998644 -1.125682E-7 
 59 -7.0554 1.005965  5.007106E-7 
 60 -6.7878 1.003924  3.330536E-7 
 61 12.6282 1.024074  2.065805E-6 
 62 -3.6920 1.020128  1.746453E-6 
 63 -7.5140 0.985608 -1.262725E-6 
 64 -5.4119 1.007335  6.508071E-7 
 65 3.0731 0.999717 -2.541557E-8 
 66 -2.0103 1.033728  3.060726E-6 
 67 9.3412 1.007811  7.169060E-7 
 68 14.9978 1.023155  2.149519E-6 
 69 14.8450 1.034728  3.260835E-6 
 70 17.1000 1.005237  4.974111E-7 
 71 -2.0103 0.999834 -1.592214E-8 
 72 -1.5516 1.012126  1.178548E-6 
 73 12.2842 1.011272  1.108258E-6 
 74 -12.5973 1.025657  2.551909E-6 
 75 -0.9401 1.012541  1.261941E-6 
 76 -4.0742 1.013082  1.331777E-6 
 77 3.4170 1.008342  8.591758E-7 
 78 8.7297 1.007829  8.157901E-7 
 79 -1.4752 1.010581  1.115525E-6 
 80 -4.9150 1.014074  1.501254E-6 
 81 -8.5842 1.020134  2.172899E-6 
 82 -0.9019 1.001815  1.981831E-7 
 83 18.4377 1.036831  4.069153E-6 
 84 4.5254 1.023195  2.592945E-6 
 85 0.7798 1.020470  2.315273E-6 
 86 7.2391 1.012180  1.393919E-6 
 87 9.4559 1.004564  5.285339E-7 
 88 11.4433 1.022979  2.692325E-6 
 89 -5.8323 1.010583  1.254559E-6 
 90 -5.9852 1.002406  2.886215E-7 
 91 6.7804 1.007795  9.460404E-7 
 92 -5.1826 1.009618  1.181164E-6 
 93 7.3537 1.007100  8.822090E-7 
 94 -0.1757 1.007514  9.445721E-7 
 95 -3.1569 1.007770  9.883286E-7 
 96 -2.2778 1.001273  1.637788E-7 
 97 8.3857 1.013377  1.741779E-6 
 98 -4.1506 1.014679  1.933785E-6 
 99 -5.8705 0.983042 -2.260293E-6 
100 4.6783 1.008893  1.199241E-6 
101 -15.3874 1.018457  2.518182E-6 
102 -19.2477 1.011428  1.577398E-6 
103 -1.5134 1.000753  1.052059E-7 
104 14.8450 1.050477  7.130921E-6 
105 -8.2784 1.001484  2.121560E-7 
106 -6.4056 0.999591 -5.910168E-8 
107 -2.6218 1.010642  1.556532E-6 
108 18.5523 1.013168  1.948148E-6 
109 17.9790 1.013133  1.965510E-6 
110 -18.0628 1.011959  1.810443E-6 
111 -8.3931 1.029675  4.544277E-6 
112 9.6470 1.018154  2.811985E-6 
113 -2.4307 1.011717  1.835781E-6 
114 -3.3098 0.996391 -5.718794E-7 
115 -4.4181 1.023648  3.790269E-6 
116 -7.2082 1.012603  2.043098E-6 
117 -14.7377 1.002674  4.384797E-7 
118 18.9345 1.011831  1.961802E-6 
119 12.7810 0.994930 -8.501164E-7 
120 -3.1569 1.035732  6.059545E-6 
121 8.6532 0.999205 -1.363110E-7 
122 18.7434 1.012709  2.204023E-6 
123 -1.7427 1.018193  3.190390E-6 
124 9.6852 1.026473  4.694404E-6 
125 12.3606 1.002339  4.193745E-7 
126 18.7052 0.995763 -7.682158E-7 
127 -3.1569 1.011772  2.157963E-6 
128 -3.1187 1.016749  3.104301E-6 
129 -6.5967 1.031094  5.826722E-6 
130 -2.0485 1.012906  2.445135E-6 
131 18.5906 1.014670  2.809741E-6 
132 -2.4689 1.009665  1.871444E-6 
133 -1.3223 1.028917  5.660401E-6 
134 18.1701 1.012402  2.454018E-6 
135 -7.5904 1.005512  1.102494E-6 
136 11.0993 1.010664  2.156189E-6 
137 -1.0165 1.015232  3.112873E-6 
138 -3.9213 1.003510  7.249980E-7 
139 -0.3286 1.004077  8.511695E-7 
140 -17.9482 1.011151  2.352980E-6 
141 4.8312 1.008099  1.727210E-6 
142 -4.6475 1.022017  4.745383E-6 
143 -12.1005 0.986532 -2.933659E-6 
144 -2.7747 1.018734  4.123729E-6 
145 -1.0930 1.010082  2.242684E-6 
146 -2.7747 1.024512  5.509909E-6 
147 17.5968 1.014020  3.184499E-6 
148 -3.8831 1.013584  3.117638E-6 
149 -1.0547 1.019390  4.496315E-6 
150 -6.4820 1.013078  3.064069E-6 
151 -3.3480 1.028033  6.636112E-6 
152 -2.4689 1.017673  4.226846E-6 
153 -10.5334 1.035679  8.620763E-6 
154 11.5962 1.024542  5.990716E-6 
155 -4.4564 0.997730 -5.596871E-7 
156 3.8375 0.992266 -1.926640E-6 
157 -2.4307 1.045473  1.144212E-5 
158 -3.9595 1.017806  4.525888E-6 
159 -13.3999 0.997011 -7.672708E-7 
160 10.7171 1.033289  8.632233E-6 
161 15.7622 1.008962  2.347201E-6 
162 1.2385 1.014824  3.921337E-6 
163 17.9408 1.018159  4.851432E-6 
164 -6.2145 1.010396  2.804854E-6 
165 -2.9658 1.020514  5.589693E-6 
166 -16.6869 1.032009  8.807823E-6 
167 -9.8454 1.003977  1.105231E-6 
168 4.6783 1.003649  1.023876E-6 
169 -18.5215 0.999126 -2.477546E-7 
170 -1.0165 0.996528 -9.932423E-7 
171 -2.5453 1.009274  2.678868E-6 
172 -2.9658 1.003206  9.351438E-7 
173 1.9647 0.990096 -2.916314E-6 
174 13.8894 1.019870  5.907256E-6 
175 -2.0867 1.013938  4.183250E-6 
176 16.1827 1.017713  5.366987E-6 
177 -4.8768 1.008942  2.735161E-6 
178 18.0937 1.009903  3.057950E-6 
179 -2.6982 1.012826  3.997850E-6 
180 10.7936 1.042193  1.327566E-5 
181 11.7873 1.010961  3.481174E-6 
182 -13.7439 1.011061  3.545670E-6 
183 18.3612 1.012481  4.038289E-6 
184 7.5066 0.997419 -8.427193E-7 
185 -2.7747 1.014619  4.818192E-6 
186 -5.8705 1.003515  1.169114E-6 
187 -1.1312 0.984481 -5.209441E-6 
188 8.9972 1.017610  5.965916E-6 
189 18.4759 1.012621  4.314727E-6 
190 -1.0547 1.035819  1.235695E-5 
191 -6.2527 1.001058  3.682345E-7 
192 -4.3799 0.998158 -6.470808E-7 
193 17.2528 1.034713  1.230377E-5 
194 -3.9213 0.992243 -2.774221E-6 
195 -5.2972 1.010023  3.616597E-6 
196 -0.1757 0.991538 -3.080567E-6 
197 -11.9858 1.007503  2.755787E-6 
198 17.2146 1.007701  2.853663E-6 
199 -2.1631 0.998623 -5.148245E-7 
200 -0.8254 1.005951  2.244616E-6 
201 7.9271 0.992264 -2.943153E-6 
202 1.4678 1.000012  4.581642E-9 
203 -1.2458 1.016532  6.400655E-6 
204 3.6464 1.002628  1.026312E-6 
205 9.4559 1.015757  6.207238E-6 
206 -2.4307 0.999559 -1.752151E-7 
207 -11.4889 1.028798  1.154119E-5 
208 -1.7427 1.051540  2.083289E-5 
209 -19.0948 1.017284  7.046333E-6 
210 -6.1763 1.010533  4.330643E-6 
211 -3.1187 1.000546  2.264921E-7 
212 18.0555 1.005949  2.487823E-6 
213 -8.1255 1.007993  3.370807E-6 
214 13.3161 1.007222  3.071268E-6 
215 -17.0309 1.007049  3.023070E-6 
216 -7.4376 1.006973  3.015371E-6 
217 -1.5898 1.010901  4.753435E-6 
218 -1.6663 1.023605  1.037908E-5 
219 8.9972 1.027520  1.220094E-5 
220 18.2466 1.023154  1.035037E-5 
221 -5.5265 0.988299 -5.274022E-6 
222 -2.3160 1.020050  9.111174E-6 
223 3.9521 1.025639  1.174655E-5 
224 -0.2521 1.002439  1.126519E-6 
225 0.2830 0.988615 -5.301798E-6 
226 -2.1631 1.019502  9.155084E-6 
227 -5.6030 0.995566 -2.098209E-6 
228 -12.1769 0.999637 -1.733923E-7 
229 17.1764 1.009500  4.568835E-6 
230 12.7810 0.993907 -2.953931E-6 
231 -8.3166 0.992861 -3.488461E-6 
232 -2.7747 1.042063  2.071814E-5 
233 -4.4946 1.036723  1.823196E-5 
234 -0.0228 0.999851 -7.475100E-8 
235 -1.2076 1.012816  6.463791E-6 
236 3.7992 1.006175  3.138995E-6 
237 -1.1694 1.016107  8.252253E-6 
238 -0.0610 1.014716  7.598767E-6 
239 -1.2076 1.024407  1.270085E-5 
240 17.6350 1.000984  5.158755E-7 
241 -4.7621 0.990963 -4.776322E-6 
242 -2.3160 0.981924 -9.626934E-6 
243 -5.7559 1.018360  9.853844E-6 
244 13.0868 0.994790 -2.817650E-6 
245 8.1182 1.021986  1.198205E-5 
246 5.8249 1.050082  2.750243E-5 
247 -1.5516 1.023812  1.317603E-5 
248 -11.5271 1.012863  7.171770E-6 
249 -19.9356 0.995423 -2.571342E-6 
250 -3.1951 1.015453  8.746329E-6 
251 -0.6725 1.012004  6.845319E-6 
252 -2.2014 1.017440  1.002032E-5 
253 -13.2853 0.999904 -5.544947E-8 
254 -16.4958 1.032714  1.907825E-5 
255 16.4120 0.994307 -3.344622E-6 
256 -2.8893 1.001048  6.202976E-7 
257 14.9596 1.004506  2.686783E-6 
258 1.7353 1.011832  7.107031E-6 
259 -8.5842 0.976068 -1.448109E-5 
260 15.8005 1.014428  8.794284E-6 
261 8.6150 1.014860  9.123829E-6 
262 4.7930 1.021281  1.316163E-5 
263 -1.0547 1.001212  7.553502E-7 
264 12.2842 1.038715  2.429350E-5 
265 -19.8974 1.009719  6.142633E-6 
266 4.5254 0.999457 -3.455309E-7 
267 -5.7559 1.012084  7.747928E-6 
268 4.7930 0.968331 -2.045101E-5 
269 -18.5979 1.016451  1.069938E-5 
270 19.1256 1.007337  4.805750E-6 
271 -17.7189 0.995997 -2.640518E-6 
272 -0.5197 1.007590  5.042395E-6 
273 -17.6424 1.031609  2.114903E-5 
274 1.5825 1.010852  7.312244E-6 
275 -0.1757 1.022484  1.525612E-5 
276 -1.4370 1.015723  1.074329E-5 
277 4.6019 1.005570  3.832238E-6 
278 15.7240 1.030835  2.136451E-5 
279 -18.4450 1.023195  1.618257E-5 
280 -16.6105 1.002121  1.489760E-6 
281 18.0555 1.018841  1.332756E-5 
282 13.7366 1.014211  1.012235E-5 
283 14.3481 1.018565  1.331387E-5 
284 -6.7114 1.010552  7.619595E-6 
285 -1.8574 1.027073  1.968295E-5 
286 12.4753 1.001595  1.167288E-6 
287 11.5580 0.989125 -8.014848E-6 
288 -3.9213 1.024328  1.805060E-5 
289 -7.2465 1.011691  8.733051E-6 
290 1.3914 1.019229  1.446070E-5 
291 1.3531 1.007817  5.918156E-6 
292 -18.9419 1.027382  2.087015E-5 
293 -1.8956 1.014784  1.134313E-5 
294 18.7817 0.995788 -3.253373E-6 
295 -18.0246 0.992009 -6.213324E-6 
296 9.4941 1.015069  1.179468E-5 
297 -3.4626 1.009035  7.118847E-6 
298 1.6207 1.015259  1.210168E-5 
299 0.7416 1.009077  7.246564E-6 
300 -5.6030 1.020786  1.670299E-5 
301 -2.8511 1.021601  1.747179E-5 
302 -2.6982 1.005876  4.784004E-6 
303 18.6670 1.007400  6.063458E-6 
304 4.8694 1.018424  1.519555E-5 
305 15.6476 1.019240  1.597155E-5 
306 19.0110 1.007804  6.520476E-6 
307 -0.4432 1.015782  1.327085E-5 
308 17.6733 1.022721  1.922819E-5 
309 3.8757 1.012330  1.050181E-5 
310 17.0617 1.026297  2.254125E-5 
311 4.9459 0.994265 -4.947728E-6 
312 15.7622 1.003660  3.177396E-6 
313 -1.7809 1.003715  3.245722E-6 
314 -3.6920 1.034921  3.070282E-5 
315 -2.5836 1.017289  1.529659E-5 
316 15.3800 1.002296  2.043888E-6 
317 15.0361 1.020582  1.843985E-5 
318 -18.6744 1.016181  1.458854E-5 
319 15.5329 1.017172  1.557824E-5 
320 11.4433 1.048060  4.387220E-5 
321 -3.1187 1.020087  1.845052E-5 
322 4.8694 1.012299  1.136787E-5 
323 -7.7815 1.021720  2.019885E-5 
324 7.9271 1.018252  1.707869E-5 
325 -0.2903 1.018858  1.775514E-5 
326 -5.9852 1.014154  1.340762E-5 
327 9.1883 1.008175  7.791915E-6 
328 11.5580 0.993577 -6.159087E-6 
329 9.4559 1.016028  1.546369E-5 
330 -7.7051 0.997130 -2.785479E-6 
331 6.2454 0.992780 -7.050679E-6 
332 -16.9162 0.992579 -7.290518E-6 
333 -1.1694 0.990677 -9.214967E-6 
334 8.1564 1.028800  2.863811E-5 
335 -17.4513 0.991733 -8.270146E-6 
336 9.6088 0.997176 -2.842452E-6 
337 1.4678 0.998628 -1.388994E-6 
338 -7.2465 1.012771  1.300595E-5 
339 -3.1951 1.030287  3.102929E-5 
340 12.0166 1.012128  1.249864E-5 
341 -2.6600 1.005474  5.675163E-6 
342 -3.5391 0.993170 -7.122048E-6 
343 1.7736 1.030141  3.161725E-5 
344 8.6532 1.027660  2.918592E-5 
345 -3.6537 0.991149 -9.394157E-6 
346 -6.8260 1.010656  1.137575E-5 
347 -4.9915 1.015819  1.698692E-5 
348 12.0931 1.010137  1.094862E-5 
349 -6.6349 1.017213  1.870000E-5 
350 -19.8592 1.029802  3.256356E-5 
351 -9.6161 1.018537  2.037186E-5 
352 -16.2283 1.008303  9.177688E-6 
353 -1.3223 1.011423  1.269902E-5 
354 -4.8768 1.006637  7.420734E-6 
355 14.1188 1.002186  2.457949E-6 
356 -4.8386 1.010498  1.187255E-5 
357 8.9972 1.018235  2.074087E-5 
358 14.6156 1.025063  2.866932E-5 
359 11.0611 1.011189  1.287208E-5 
360 3.6464 1.022484  2.601169E-5 
361 -18.9801 1.035781  4.163020E-5 
362 -4.3035 1.013980  1.635751E-5 
363 -2.2014 1.009058  1.065815E-5 
364 11.5962 0.998792 -1.429091E-6 
365 -3.8831 0.979710 -2.414307E-5 
366 -6.5585 1.004354  5.210017E-6 
367 -5.0679 1.018463  2.221474E-5 
368 8.3857 1.014579  1.763882E-5 
369 8.9590 1.009046  1.100597E-5 
370 -4.5328 1.023920  2.926295E-5 
371 0.7034 1.010958  1.348052E-5 
372 9.1501 0.998032 -2.434214E-6 
373 -4.9915 1.000475  5.908608E-7 
374 17.3675 1.003731  4.666135E-6 
375 18.3230 1.008029  1.009620E-5 
376 -3.5009 0.990366 -1.218064E-5 
377 -0.4814 1.028187  3.583210E-5 
378 17.9790 1.003452  4.412249E-6 
379 -10.3805 0.997758 -2.880745E-6 
380 -19.8974 1.004281  5.531001E-6 
381 18.9728 1.010767  1.398753E-5 
382 -3.6155 1.010787  1.408841E-5 
383 -3.3480 1.005323  6.990291E-6 
384 -2.3542 1.011228  1.482312E-5 
385 -2.6218 1.006287  8.344265E-6 
386 -0.3286 1.016358  2.182673E-5 
387 5.2134 1.024105  3.233600E-5 
388 -3.3098 1.005661  7.633919E-6 
389 -4.5328 1.021164  2.869441E-5 
390 -1.1312 1.006512  8.875530E-6 
391 -0.9401 1.005082  6.962897E-6 
392 9.7234 1.010168  1.400575E-5 
393 17.8644 1.024764  3.429083E-5 
394 13.5455 1.019513  2.716154E-5 
395 -1.4370 1.017615  2.464948E-5 
396 17.5204 1.011801  1.660025E-5 
397 -5.2208 1.019987  2.826207E-5 
398 16.9853 1.017764  2.524998E-5 
399 -1.8956 1.015801  2.257683E-5 
400 -7.9726 1.001226  1.761479E-6 
401 -6.6349 0.995426 -6.602799E-6 
402 -5.4883 1.013797  2.002128E-5 
403 7.4302 1.005105  7.446058E-6 
404 -8.5460 1.015397  2.257383E-5 
405 -5.0679 1.013116  1.932888E-5 
406 15.2272 1.002903  4.299326E-6 
407 -1.0930 1.003109  4.628587E-6 
408 5.3281 1.027341  4.091425E-5 
409 -0.8254 1.005378  8.088355E-6 
410 17.9790 1.012719  1.922802E-5 
411 -4.0742 1.006250  9.496596E-6 
412 9.3030 1.019556  2.986381E-5 
413 7.5448 1.011314  1.736566E-5 
414 -19.8210 1.025319  3.905664E-5 
415 15.8769 1.030192  4.680762E-5 
416 -19.7445 0.991223 -1.367574E-5 
417 -6.2909 0.985545 -2.263530E-5 
418 18.5523 1.014236  2.240495E-5 
419 -2.9658 0.999720 -4.427315E-7 
420 -1.1312 1.000379  6.018779E-7 
421 3.3024 1.040583  6.482895E-5 
422 -3.4626 1.022695  3.643381E-5 
423 1.5442 0.982494 -2.824348E-5 
424 -18.8655 1.009155  1.484375E-5 
425 -0.3286 1.035469  5.779128E-5 
426 -0.9019 1.019215  3.146273E-5 
427 -2.1631 1.010966  1.804370E-5 
428 6.2071 1.009106  1.505598E-5 
429 5.8249 0.993759 -1.036932E-5 
430 9.9145 1.006954  1.161115E-5 
431 -19.0183 1.018891  3.169626E-5 
432 -6.2145 1.007155  1.206323E-5 
433 -2.0867 0.995427 -7.748364E-6 
434 13.0486 1.006375  1.085300E-5 
435 11.7109 1.000239  4.085214E-7 
436 -1.2841 0.997249 -4.729509E-6 
437 -4.4564 1.024679  4.262760E-5 
438 -0.2521 1.018909  3.281840E-5 
439 -4.6857 0.994035 -1.040215E-5 
440 -17.4513 1.014030  2.458477E-5 
441 -0.7490 1.018102  3.187216E-5 
442 -3.4626 1.019814  3.505266E-5 
443 15.7622 1.023243  4.131449E-5 
444 -1.3987 0.998612 -2.479185E-6 
445 7.0862 1.011837  2.124114E-5 
446 -4.1124 1.015682  2.827465E-5 
447 -1.6663 1.002154  3.902061E-6 
448 15.9533 1.018412  3.351165E-5 
449 -2.2396 1.037771  6.906904E-5 
450 -6.3674 1.008548  1.570548E-5 
451 -1.4370 0.995800 -7.752548E-6 
452 -5.0297 0.990061 -1.843216E-5 
453 18.6670 1.017082  3.182759E-5 
454 -2.3160 0.995143 -9.091584E-6 
455 -2.0103 1.018481  3.475604E-5 
456 18.5523 1.001218  2.301549E-6 
457 -1.8574 1.003406  6.465215E-6 
458 -4.5328 1.016642  3.173522E-5 
459 18.0172 1.028164  5.395629E-5 
460 9.1501 1.008855  1.704318E-5 
461 10.9082 0.990383 -1.859367E-5 
462 16.6031 1.024615  4.781181E-5 
463 -0.4050 1.019541  3.812987E-5 
464 16.3738 1.032895  6.448205E-5 
465 16.5266 1.003044  5.994841E-6 
466 -4.8386 0.992844 -1.415578E-5 
467 -4.0359 0.993491 -1.293583E-5 
468 -5.7941 1.028514  5.692334E-5 
469 -0.7490 1.023571  4.726936E-5 
470 -19.0566 1.015601  3.142838E-5 
471 -1.3223 1.010011  2.025885E-5 
472 -2.5071 1.004762  9.680207E-6 
473 -2.8129 1.037534  7.663962E-5 
474 -4.6857 1.010767  2.208482E-5 
475 -18.7508 1.008206  1.690687E-5 
476 8.5768 1.004339  8.979335E-6 
477 -2.0103 1.000392  8.143842E-7 
478 -5.9470 0.992440 -1.578696E-5 
479 -6.7878 1.007543  1.582034E-5 
480 18.8963 1.025638  5.401443E-5 
481 -1.6663 1.009226  1.952339E-5 
482 -17.5278 1.010214  2.171039E-5 
483 15.8769 1.005985  1.277787E-5 
484 4.3343 1.001690  3.624160E-6 
485 -8.8135 1.019017  4.096124E-5 
486 11.5580 1.010838  2.344609E-5 
487 -0.9783 1.005652  1.228151E-5 
488 -1.2841 1.005302  1.157075E-5 
489 4.4108 1.014909  3.268126E-5 
490 -14.2790 1.015287  3.365625E-5 
491 -7.2847 0.989319 -2.361876E-5 
492 17.3675 1.015699  3.486588E-5 
493 10.2203 1.009937  2.216449E-5 
494 8.3093 0.991817 -1.833094E-5 
495 -6.7878 1.017786  4.001856E-5 
496 -0.8636 0.994426 -1.259485E-5 
497 3.8375 0.992581 -1.683834E-5 
498 4.0286 1.024009  5.472285E-5 
499 4.3726 1.022861  5.233168E-5 
500 -1.0547 1.033024  7.592125E-5 
501 17.0617 1.027338  6.311866E-5 
502 -18.6361 1.023155  5.369082E-5 
503 -3.9977 1.009007  2.097445E-5 
504 16.6795 1.019157  4.479977E-5 
505 18.3612 1.026812  6.297021E-5 
506 -2.1631 1.013798  3.254295E-5 
507 9.1119 1.009546  2.261190E-5 
508 -4.1506 1.016530  3.931991E-5 
509 12.6282 0.989301 -2.555735E-5 
510 7.7742 1.005235  1.255736E-5 
511 -0.5197 0.997177 -6.800523E-6 
512 -7.8198 1.025154  6.085052E-5 
513 -2.2778 1.000538  1.306219E-6 
514 9.7999 1.024873  6.067956E-5 
515 19.0110 1.024843  6.085904E-5 
516 3.4935 1.008837  2.174035E-5 
517 -15.6550 1.012301  3.038842E-5 
518 -2.3160 1.004540  1.126163E-5 
519 -17.2220 1.023782  5.923978E-5 
520 -2.8129 1.016330  4.084743E-5 
521 17.9790 1.025149  6.316793E-5 
522 17.1382 0.997472 -6.376483E-6 
523 2.8437 1.030248  7.660780E-5 
524 -17.5660 1.008817  2.242261E-5 
525 -3.5009 0.997915 -5.324941E-6 
526 -17.2602 0.994130 -1.505147E-5 
527 -0.5197 0.984944 -3.876318E-5 
528 -0.5579 1.011748  3.037145E-5 
529 -4.6857 1.049424  1.282977E-4 
530 -2.3542 1.023726  6.184183E-5 
531 -1.7427 1.014961  3.915508E-5 
532 -19.7063 1.014109  3.707673E-5 
533 -3.8448 1.030072  7.934480E-5 
534 6.3982 1.041449  1.098092E-4 
535 -8.7753 0.989154 -2.885122E-5 
536 -16.2665 0.995830 -1.113666E-5 
537 0.5505 1.011590  3.107946E-5 
538 -2.5453 1.016596  4.468408E-5 
539 -8.6606 1.026287  7.106280E-5 
540 8.2328 1.031501  8.549961E-5 
541 -6.7114 1.000238  6.487124E-7 
542 -5.6030 1.012449  3.406151E-5 
543 -9.2721 1.024438  6.713281E-5 
544 -1.4752 1.000210  5.788539E-7 
545 -18.9037 1.011102  3.074322E-5 
546 -3.4244 0.991769 -2.288361E-5 
547 18.7052 1.027530  7.684173E-5 
548 -7.3611 1.017927  5.023743E-5 
549 -1.6663 1.001467  4.126006E-6 
550 17.1764 0.998490 -4.264169E-6 
551 3.4170 1.001496  4.243385E-6 
552 -2.3160 1.015029  4.278715E-5 
553 8.8061 1.033667  9.622878E-5 
554 -3.2333 1.017172  4.927721E-5 
555 18.0555 1.018533  5.338965E-5 
 6.129519  90.00  10.00 -0.00 0.09
  0 -0.1757 1.045082  2.538314E-6 
  1 -1.2458 1.066167  3.728012E-6 
  2 -13.0942 1.151685  8.554258E-6 
  3 0.4358 1.175886  9.930821E-6 
  4 0.2065 1.157538  8.907720E-6 
  5 -0.3286 1.128274  7.265350E-6 
  6 -0.3668 1.143648  8.151973E-6 
  7 -0.8254 1.095608  5.437672E-6 
  8 -0.8636 1.107118  6.107286E-6 
  9 -0.9783 1.121563  6.949637E-6 
 10 -1.0165 1.112798  6.467568E-6 
 11 -1.0930 1.102950  5.921829E-6 
 12 -1.1694 1.089335  5.156405E-6 
 13 -1.2841 1.097726  5.661528E-6 
 14 -1.5134 1.086308  5.019737E-6 
 15 -1.9338 1.052219  3.049728E-6 
 16 -2.3160 1.065879  3.864474E-6 
 17 -2.5453 1.040708  2.399003E-6 
 18 -2.3542 1.031548  1.868251E-6 
 19 -2.0103 1.018561  1.104764E-6 
 20 -3.0422 1.021687  1.297715E-6 
 21 -2.4689 1.014695  8.841835E-7 
 22 -1.6281 1.006902  4.176804E-7 
 23 -3.1187 1.025138  1.530301E-6 
 24 -4.1506 1.032170  1.970506E-6 
 25 -3.0804 1.000762  4.694512E-8 
 26 -11.1449 1.019953  1.238062E-6 
 27 -3.6155 1.006194  3.869481E-7 
 28 -3.5009 1.019570  1.231087E-6 
 29 -12.4062 1.007903  5.006882E-7 
 30 -4.4946 1.024214  1.545378E-6 
 31 14.9596 1.006600  4.243854E-7 
 32 -7.9344 0.998430 -1.017637E-7 
 33 -4.2270 1.008621  5.630298E-7 
 34 8.6532 1.000607  3.998188E-8 
 35 -17.7571 1.015878  1.053946E-6 
 36 -14.4701 1.007679  5.139739E-7 
 37 -12.4062 0.999221 -5.256639E-8 
 38 -12.5209 0.991066 -6.083039E-7 
 39 -5.4501 1.022809  1.566840E-6 
 40 -14.3937 1.015346  1.063597E-6 
 41 -5.4119 1.006200  4.336744E-7 
 42 8.3475 1.017713  1.250336E-6 
 43 -10.6099 1.006089  4.338713E-7 
 44 9.4559 1.000010 6.906633E-10 
 45 -3.8066 1.009430  6.848247E-7 
 46 -17.4513 1.015246  1.118017E-6 
 47 -2.6600 1.022572  1.671548E-6 
 48 -1.8956 1.027583  2.063079E-6 
 49 7.9653 1.000547  4.135519E-8 
 50 12.6282 0.998424 -1.202717E-7 
 51 8.7679 0.992163 -6.042850E-7 
 52 18.0937 0.998982 -7.932039E-8 
 53 -11.1449 1.009902  7.794851E-7 
 54 1.6589 1.012911  1.027118E-6 
 55 -4.5328 0.995977 -3.234776E-7 
 56 0.9709 1.015106  1.227574E-6 
 57 -8.4695 1.000359  2.951688E-8 
 58 2.8055 1.009082  7.540991E-7 
 59 4.7165 1.007604  6.382869E-7 
 60 -9.5779 1.001705  1.447268E-7 
 61 15.5711 1.003602  3.090706E-7 
 62 -14.5466 1.027901  2.420881E-6 
 63 -10.0365 1.001518  1.332012E-7 
 64 13.2015 0.996111 -3.450916E-7 
 65 -10.0365 1.017405  1.561744E-6 
 66 -15.2345 1.045226  4.104090E-6 
 67 -4.7239 1.006448  5.917679E-7 
 68 6.2454 1.004359  4.046068E-7 
 69 16.1444 1.020198  1.896507E-6 
 70 9.7999 1.000476  4.523402E-8 
 71 -12.7502 1.007920  7.609044E-7 
 72 7.4684 1.013365  1.298892E-6 
 73 3.9139 1.020908  2.055666E-6 
 74 -10.9156 1.012783  1.271431E-6 
 75 17.9408 1.009602  9.661596E-7 
 76 10.2967 1.031782  3.235377E-6 
 77 9.9910 1.004729  4.870567E-7 
 78 -19.3623 1.006758  7.041889E-7 
 79 -8.1637 0.994828 -5.452370E-7 
 80 14.1570 1.004260  4.544498E-7 
 81 -11.5654 1.015320  1.653402E-6 
 82 -4.4181 1.007204  7.866772E-7 
 83 -11.9093 1.006228  6.880718E-7 
 84 10.5643 1.015659  1.750466E-6 
 85 12.7810 1.021297  2.408887E-6 
 86 2.8055 0.992990 -8.022128E-7 
 87 17.1000 1.021332  2.470172E-6 
 88 -17.9100 1.023559  2.760315E-6 
 89 10.6407 0.999566 -5.148038E-8 
 90 -11.7182 1.019507  2.339826E-6 
 91 7.8888 1.007329  8.895093E-7 
 92 -19.1712 0.993382 -8.126405E-7 
 93 10.1056 1.000454  5.643132E-8 
 94 18.4759 1.030239  3.801539E-6 
 95 11.2140 1.031877  4.054648E-6 
 96 14.2716 0.983660 -2.102909E-6 
 97 18.7434 1.027635  3.598350E-6 
 98 -13.2853 1.020535  2.705270E-6 
 99 -0.7108 1.014497  1.932255E-6 
100 -16.4576 1.023157  3.122843E-6 
101 -12.7502 1.002393  3.264703E-7 
102 18.8963 1.025018  3.453271E-6 
103 -10.4570 0.990534 -1.321875E-6 
104 11.6344 1.026017  3.675485E-6 
105 10.0292 1.014839  2.120696E-6 
106 8.9208 1.019280  2.787525E-6 
107 3.7228 1.002090  3.056723E-7 
108 15.3036 1.014067  2.081182E-6 
109 15.9916 1.003448  5.160419E-7 
110 -12.1387 0.986507 -2.042733E-6 
111 -0.5961 1.022690  3.474679E-6 
112 -3.4244 1.005187  8.034792E-7 
113 -14.5848 1.024939  3.907230E-6 
114 18.5906 1.006952  1.101643E-6 
115 -11.9093 0.997289 -4.344534E-7 
116 6.2454 1.010481  1.698975E-6 
117 6.1307 1.022266  3.650476E-6 
118 14.3863 0.995723 -7.091145E-7 
119 -3.0422 1.002152  3.608571E-7 
120 3.0348 1.041316  7.006522E-6 
121 -13.8968 1.003326  5.704579E-7 
122 -10.0748 0.996004 -6.929939E-7 
123 -17.0691 1.006394  1.121264E-6 
124 -0.0228 1.005813  1.030875E-6 
125 -3.1187 1.007438  1.333644E-6 
126 6.5129 1.002772  5.025685E-7 
127 -14.8141 0.989969 -1.838878E-6 
128 16.9853 0.996258 -6.934885E-7 
129 -14.2790 1.003731  6.990901E-7 
130 -19.0183 0.984213 -2.990843E-6 
131 16.8706 1.022327  4.276320E-6 
132 -3.7684 1.017809  3.448314E-6 
133 7.0480 1.011248  2.201669E-6 
134 10.3732 1.012835  2.539781E-6 
135 9.3794 1.014562  2.912749E-6 
136 -1.8574 1.003467  7.010026E-7 
137 -18.0628 1.026274  5.369556E-6 
138 -5.7559 1.010330  2.133918E-6 
139 -17.7571 1.011632  2.428597E-6 
140 13.3544 1.003830  8.082959E-7 
141 -13.0177 0.991802 -1.748303E-6 
142 7.1244 1.009458  2.038569E-6 
143 14.9214 0.982421 -3.829150E-6 
144 -13.7821 1.016583  3.650205E-6 
145 -12.7884 1.000511  1.137464E-7 
146 -14.7377 1.008211  1.845709E-6 
147 19.1256 1.002393  5.435399E-7 
148 -2.2396 1.000426  9.771415E-8 
149 -11.5271 1.016691  3.870554E-6 
150 -11.2596 1.012306  2.883248E-6 
151 7.3920 1.021148  5.006115E-6 
152 10.2203 1.022621  5.410157E-6 
153 1.0092 1.031855  7.696915E-6 
154 17.3675 1.025139  6.136240E-6 
155 11.6727 0.985120 -3.669134E-6 
156 -3.6920 1.004997  1.244779E-6 
157 12.2842 1.004222  1.062418E-6 
158 0.5887 1.006981  1.774504E-6 
159 14.5392 1.000975  2.503175E-7 
160 -2.4689 1.014843  3.848981E-6 
161 -11.3360 1.000858  2.246655E-7 
162 11.1376 0.991344 -2.289863E-6 
163 12.5899 1.001292  3.450979E-7 
164 -11.4507 1.001440  3.886254E-7 
165 17.0617 1.014641  3.989409E-6 
166 -0.3286 1.020619  5.673791E-6 
167 17.0235 1.029248  8.127184E-6 
168 -5.6030 1.004681  1.313415E-6 
169 14.4627 0.995400 -1.303380E-6 
170 -12.4444 0.996760 -9.270363E-7 
171 2.1175 1.007467  2.157044E-6 
172 9.7234 0.996044 -1.153929E-6 
173 11.2905 1.012963  3.817307E-6 
174 -6.5585 1.030941  9.198553E-6 
175 14.2716 1.021775  6.535572E-6 
176 9.8381 1.007780  2.357387E-6 
177 8.3857 1.011943  3.653148E-6 
178 12.3224 1.011661  3.600638E-6 
179 6.4747 1.015424  4.807857E-6 
180 -13.0177 1.006572  2.067906E-6 
181 -13.4382 1.010779  3.423384E-6 
182 -15.1581 1.001611  5.163607E-7 
183 -0.7872 0.995429 -1.478836E-6 
184 9.4559 1.013093  4.275674E-6 
185 16.3738 1.011745  3.871034E-6 
186 17.2528 1.013175  4.382350E-6 
187 16.3738 0.981929 -6.066129E-6 
188 -3.3480 0.995372 -1.567999E-6 
189 5.8249 0.989186 -3.697011E-6 
190 -13.2853 1.033970  1.171909E-5 
191 8.9590 0.999685 -1.095071E-7 
192 9.9527 1.020276  7.122569E-6 
193 -11.4507 0.995236 -1.688593E-6 
194 17.0617 1.006146  2.198092E-6 
195 17.3293 0.999320 -2.453175E-7 
196 15.8769 1.031797  1.157630E-5 
197 0.1301 1.006964  2.558030E-6 
198 7.2391 1.026661  9.879686E-6 
199 7.6977 0.996365 -1.359025E-6 
200 -13.3235 1.008103  3.055953E-6 
201 -16.2665 0.996162 -1.460380E-6 
202 6.7040 1.012497  4.796380E-6 
203 -15.4256 1.000726  2.812694E-7 
204 9.8381 0.995783 -1.647046E-6 
205 -10.3805 1.023049  9.079727E-6 
206 13.6983 1.022778  9.050326E-6 
207 18.2083 0.997062 -1.177298E-6 
208 19.0110 1.031612  1.277788E-5 
209 -17.7571 1.003647  1.486588E-6 
210 -10.7245 1.016529  6.795993E-6 
211 8.2328 1.015034  6.234217E-6 
212 -13.2088 1.009550  3.993724E-6 
213 14.5010 1.025197  1.062631E-5 
214 0.6270 1.001188  5.053996E-7 
215 11.1376 0.993727 -2.690142E-6 
216 -0.9019 1.017629  7.623590E-6 
217 -10.7245 0.991587 -3.668676E-6 
218 -17.2220 1.002868  1.261201E-6 
219 -17.4131 1.013125  5.819131E-6 
220 -13.4764 0.989604 -4.647195E-6 
221 9.0354 0.991308 -3.917703E-6 
222 14.3481 1.022716  1.032272E-5 
223 -10.1894 1.035546  1.628532E-5 
224 -16.3429 1.006326  2.922155E-6 
225 -15.9225 1.017958  8.362396E-6 
226 7.5448 0.986713 -6.237333E-6 
227 -9.5015 1.014103  6.674204E-6 
228 -7.9344 1.001159  5.530491E-7 
229 -15.3110 1.015113  7.268024E-6 
230 12.6664 1.005491  2.661717E-6 
231 17.2528 1.021345  1.043025E-5 
232 -14.8523 1.003524  1.735881E-6 
233 9.1119 1.016956  8.418258E-6 
234 -13.9733 1.025330  1.267516E-5 
235 17.2911 1.018045  9.101454E-6 
236 17.5586 1.028849  1.466489E-5 
237 -8.6606 1.022184  1.136543E-5 
238 -9.3486 1.025822  1.333308E-5 
239 18.1701 1.014945  7.777042E-6 
240 16.4502 0.993155 -3.589850E-6 
241 -4.5710 1.002804  1.481769E-6 
242 -12.8649 1.007155  3.810851E-6 
243 -11.8711 1.039181  2.102861E-5 
244 -2.1631 1.008741  4.727467E-6 
245 -12.5209 1.030847  1.681110E-5 
246 12.0166 1.003481  1.911670E-6 
247 15.4565 1.017356  9.603541E-6 
248 -0.2521 1.030300  1.689347E-5 
249 -8.2402 1.008551  4.803452E-6 
250 16.9471 1.012858  7.277721E-6 
251 -3.6537 1.007346  4.189200E-6 
252 -2.0103 1.012778  7.341932E-6 
253 -1.8574 1.011533  6.676075E-6 
254 -18.6361 1.027765  1.619219E-5 
255 18.5141 1.006315  3.710305E-6 
256 -14.5466 0.999813 -1.104465E-7 
257 16.9471 1.015269  9.104341E-6 
258 -3.0804 1.005344  3.210300E-6 
259 1.2385 0.992747 -4.388735E-6 
260 5.7485 1.003076  1.874737E-6 
261 13.8894 1.000261  1.600134E-7 
262 -14.1644 1.012577  7.778645E-6 
263 -13.4382 1.015470  9.637282E-6 
264 -14.6994 1.023211  1.456499E-5 
265 -14.1644 1.002168  1.370009E-6 
266 19.0492 0.994542 -3.474564E-6 
267 13.3161 1.028005  1.795622E-5 
268 3.5699 0.994387 -3.624558E-6 
269 14.8067 1.025712  1.672317E-5 
270 -2.6218 1.019446  1.273777E-5 
271 -3.8066 1.007243  4.778339E-6 
272 -12.4444 0.989331 -7.088147E-6 
273 -11.8329 0.984819 -1.015737E-5 
274 -4.6475 1.030322  2.043065E-5 
275 0.7034 1.000368  2.498624E-7 
276 -4.1124 1.008302  5.672587E-6 
277 -19.6299 1.016291  1.120958E-5 
278 11.8638 1.024716  1.712489E-5 
279 -19.4006 1.000595  4.152495E-7 
280 -3.0804 1.008914  6.262147E-6 
281 7.6595 1.012153  8.596609E-6 
282 -9.9219 0.993126 -4.895794E-6 
283 7.4302 1.015785  1.132046E-5 
284 15.8005 1.020333  1.468244E-5 
285 3.5317 1.006733  4.895135E-6 
286 9.3412 1.006573  4.811583E-6 
287 -6.2909 1.012329  9.086430E-6 
288 -10.8774 0.998167 -1.360170E-6 
289 -12.4444 1.018199  1.359468E-5 
290 3.5317 0.996158 -2.889668E-6 
291 17.0617 1.003527  2.670348E-6 
292 -12.9413 1.024842  1.893378E-5 
293 2.7291 1.017725  1.360011E-5 
294 -13.0177 1.021109  1.630487E-5 
295 13.5455 1.013258  1.030878E-5 
296 -16.5722 1.004425  3.463527E-6 
297 -2.2778 1.029768  2.345433E-5 
298 9.6088 1.013298  1.054635E-5 
299 -12.8266 1.011081  8.846360E-6 
300 -7.5140 1.006164  4.952872E-6 
301 -8.6606 0.991021 -7.262582E-6 
302 9.6852 1.014940  1.216328E-5 
303 8.8443 0.999352 -5.309173E-7 
304 -2.7747 1.014497  1.195701E-5 
305 -12.4062 1.014708  1.220961E-5 
306 4.5254 1.023835  1.991408E-5 
307 -16.3047 1.020667  1.737853E-5 
308 -5.2208 1.027725  2.346364E-5 
309 -14.5083 1.019445  1.656152E-5 
310 -10.9921 1.015143  1.298030E-5 
311 8.8061 0.982695 -1.492799E-5 
312 -18.7126 0.997782 -1.925227E-6 
313 3.7228 1.023128  2.020581E-5 
314 -15.5021 1.032409  2.849421E-5 
315 -5.0297 1.006151  5.442599E-6 
316 13.2397 0.996376 -3.226397E-6 
317 -10.7627 1.015981  1.431766E-5 
318 -5.4119 0.987417 -1.134428E-5 
319 -16.3811 1.017832  1.617713E-5 
320 6.1689 1.009550  8.718122E-6 
321 -11.8329 1.017698  1.625664E-5 
322 -13.8586 0.992673 -6.771773E-6 
323 -11.4889 0.997214 -2.591172E-6 
324 6.5893 1.008156  7.631972E-6 
325 -15.2727 1.013154  1.238446E-5 
326 8.8826 1.000153  1.446922E-7 
327 -18.1775 1.001206  1.149698E-6 
328 3.7992 1.007090  6.798698E-6 
329 6.3218 1.014911  1.438635E-5 
330 -15.8843 1.013215  1.282764E-5 
331 -15.0816 0.993144 -6.695641E-6 
332 -2.5453 1.006158  6.050345E-6 
333 -12.5973 1.010723  1.059827E-5 
334 7.5066 1.013109  1.303512E-5 
335 -9.9983 0.991301 -8.701602E-6 
336 9.8763 1.000410  4.129925E-7 
337 -3.1569 0.995589 -4.465156E-6 
338 -17.8717 1.008567  8.725301E-6 
339 7.2773 1.016171  1.656758E-5 
340 -6.5203 1.006151  6.338955E-6 
341 -14.3555 0.998192 -1.874361E-6 
342 2.6526 1.005841  6.091663E-6 
343 -15.8078 1.012924  1.355699E-5 
344 -14.0879 1.025878  2.730510E-5 
345 17.5204 1.012855  1.364394E-5 
346 6.8951 0.996257 -3.995547E-6 
347 -13.8204 1.021754  2.335972E-5 
348 10.5643 1.026021  2.810467E-5 
349 -8.8135 0.998002 -2.170657E-6 
350 -12.6355 1.019012  2.077343E-5 
351 -15.0052 0.988691 -1.242852E-5 
352 0.0536 0.998003 -2.207788E-6 
353 -14.7759 1.004957  5.511013E-6 
354 -9.6543 0.999981 -2.150128E-8 
355 18.8963 1.002841  3.194817E-6 
356 -13.0560 1.017557  1.985608E-5 
357 -17.7571 1.023202  2.639019E-5 
358 11.5198 1.011703  1.338664E-5 
359 1.4678 1.016487  1.896703E-5 
360 -17.1073 1.003672  4.248603E-6 
361 18.2466 1.025552  2.972917E-5 
362 -19.0183 1.005765  6.745574E-6 
363 -10.3423 1.025607  3.012944E-5 
364 -0.5579 0.985001 -1.774712E-5 
365 -13.0177 0.995290 -5.604433E-6 
366 6.2454 0.996801 -3.828009E-6 
367 -2.0103 0.989643 -1.246165E-5 
368 16.4884 1.018457  2.233108E-5 
369 8.7679 1.016490  2.006192E-5 
370 -14.5848 1.000155  1.893765E-7 
371 -16.0754 1.015071  1.853896E-5 
372 14.7303 0.994262 -7.097907E-6 
373 14.9978 1.020837  2.591645E-5 
374 15.6094 0.995865 -5.171714E-6 
375 -8.0873 1.006097  7.666600E-6 
376 -14.5848 1.013823  1.747617E-5 
377 -13.3999 1.014421  1.833245E-5 
378 6.2071 1.009493  1.213299E-5 
379 15.3800 1.010282  1.321374E-5 
380 7.7360 1.015726  2.031918E-5 
381 16.8706 1.031947  4.150138E-5 
382 -12.3298 1.006575  8.587408E-6 
383 7.3920 1.000107  1.407930E-7 
384 -17.2602 1.027326  3.607541E-5 
385 -17.2602 1.012693  1.684676E-5 
386 12.2077 1.005295  7.064895E-6 
387 -1.7045 1.000820  1.100173E-6 
388 18.6288 1.011615  1.566478E-5 
389 -12.7502 1.021099  2.860571E-5 
390 8.3093 0.988760 -1.532062E-5 
391 12.9721 1.008158  1.117779E-5 
392 6.1689 0.998531 -2.023810E-6 
393 -11.6418 1.015756  2.181738E-5 
394 -15.0434 1.007893  1.098663E-5 
395 12.5899 0.995250 -6.646840E-6 
396 11.2905 1.002543  3.577311E-6 
397 16.6795 1.000612  8.647435E-7 
398 4.7548 1.018701  2.658149E-5 
399 -5.7176 0.995216 -6.835504E-6 
400 17.7497 0.991650 -1.199205E-5 
401 11.9784 1.016899  2.439640E-5 
402 -16.8016 1.026638  3.865522E-5 
403 -9.7308 1.022913  3.342085E-5 
404 -7.0171 1.016151  2.367998E-5 
405 -18.4068 1.021536  3.173766E-5 
406 17.8644 0.982500 -2.592162E-5 
407 14.4245 1.006579  9.795117E-6 
408 -14.2026 1.030185  4.516992E-5 
409 -16.5722 1.007292  1.096790E-5 
410 10.8700 1.007635  1.154267E-5 
411 9.9527 1.009701  1.473920E-5 
412 -7.9726 1.017808  2.719466E-5 
413 8.1946 1.019426  2.981576E-5 
414 14.6538 1.006007  9.266227E-6 
415 7.0480 1.013150  2.038702E-5 
416 -13.4764 1.013936  2.171477E-5 
417 -4.5328 1.011174  1.749850E-5 
418 15.8387 1.011226  1.766720E-5 
419 5.2134 1.028307  4.477211E-5 
420 18.0555 1.013349  2.121831E-5 
421 -13.5146 1.015619  2.495110E-5 
422 3.4170 1.002005  3.219383E-6 
423 -0.0228 0.999534 -7.515826E-7 
424 15.2654 0.996529 -5.626869E-6 
425 -14.8523 1.010418  1.697409E-5 
426 0.0536 1.010900  1.784765E-5 
427 2.6526 1.000200  3.294948E-7 
428 -15.7314 1.022246  3.678394E-5 
429 7.0862 1.001837  3.052297E-6 
430 19.0874 1.002854  4.765527E-6 
431 -17.4131 1.006956  1.167185E-5 
432 -13.9733 1.014277  2.407204E-5 
433 -11.5654 0.996717 -5.562373E-6 
434 -1.8956 1.020871  3.553283E-5 
435 -11.2978 1.021841  3.736429E-5 
436 -12.2533 1.005282  9.079391E-6 
437 -11.2978 1.011140  1.924232E-5 
438 -1.4370 1.027481  4.769485E-5 
439 -13.4382 1.000160  2.796132E-7 
440 9.7616 1.007342  1.286566E-5 
441 11.6344 1.042217  7.433075E-5 
442 17.0235 1.008254  1.460230E-5 
443 -1.5898 1.011981  2.129572E-5 
444 -1.6663 1.004805  8.581137E-6 
445 0.2065 1.008452  1.516746E-5 
446 15.3418 1.010086  1.818448E-5 
447 -12.8649 1.016213  2.937024E-5 
448 -12.5591 1.012407  2.258129E-5 
449 -1.1694 1.015680  2.867277E-5 
450 14.8450 0.997525 -4.547514E-6 
451 6.0160 1.032167  5.937687E-5 
452 -11.7182 1.008449  1.566933E-5 
453 16.4884 0.995563 -8.267171E-6 
454 12.2077 0.999254 -1.396153E-6 
455 -14.5848 1.024243  4.559295E-5 
456 -7.8198 1.007590  1.433947E-5 
457 -13.2471 1.016496  3.131151E-5 
458 4.8694 1.012577  2.398377E-5 
459 -7.3229 1.008491  1.626631E-5 
460 6.1689 1.020764  3.996227E-5 
461 14.2334 1.002959  5.721532E-6 
462 16.1062 1.001429  2.774766E-6 
463 -16.6869 1.011933  2.328454E-5 
464 15.9151 1.012265  2.404230E-5 
465 6.7804 0.988610 -2.242908E-5 
466 0.8945 1.016619  3.287716E-5 
467 -12.4827 1.006339  1.259687E-5 
468 17.0617 1.013601  2.715197E-5 
469 1.0092 1.021317  4.274836E-5 
470 8.1182 0.996636 -6.775685E-6 
471 -15.5785 1.011787  2.385214E-5 
472 -12.4444 0.985566 -2.933963E-5 
473 8.5768 1.016863  3.443310E-5 
474 16.2591 1.022582  4.631681E-5 
475 -13.1324 0.991757 -1.698255E-5 
476 -13.6675 1.009829  2.034160E-5 
477 -3.8831 1.002277  4.732678E-6 
478 -4.2653 0.994982 -1.047835E-5 
479 7.1244 0.997305 -5.651703E-6 
480 -12.9795 1.008693  1.831489E-5 
481 -2.6218 1.002454  5.193247E-6 
482 -8.7753 1.000114  2.422103E-7 
483 -15.4256 1.012686  2.708351E-5 
484 -10.6481 1.006736  1.444397E-5 
485 -15.3110 1.005120  1.102810E-5 
486 11.9784 1.005354  1.158307E-5 
487 -13.9733 1.008603  1.869311E-5 
488 -17.6424 1.016321  3.561945E-5 
489 -3.2715 1.005855  1.283424E-5 
490 6.6276 1.025415  5.595432E-5 
491 -12.9031 0.999678 -7.121633E-7 
492 -13.6293 0.992564 -1.651404E-5 
493 14.1188 1.023833  5.316085E-5 
494 -14.0497 1.017681  3.960883E-5 
495 1.1238 1.037099  8.347195E-5 
496 -14.1261 1.021900  4.948755E-5 
497 -15.0816 1.016837  3.821038E-5 
498 -10.5716 1.006661  1.518303E-5 
499 -10.6481 1.013594  3.111859E-5 
500 -13.4382 1.009786  2.249863E-5 
501 -2.7364 1.012771  2.948549E-5 
502 -11.4507 1.024901  5.773973E-5 
503 12.7428 1.011608  2.703006E-5 
504 18.1701 1.028869  6.751236E-5 
505 -8.0873 1.007383  1.733978E-5 
506 -15.0816 0.999658 -8.056317E-7 
507 -17.1073 1.022078  5.229333E-5 
508 -14.5848 1.006696  1.592847E-5 
509 1.5060 1.008798  2.101535E-5 
510 -9.6161 0.997231 -6.642568E-6 
511 5.0605 1.003847  9.266291E-6 
512 -12.7120 1.008149  1.971284E-5 
513 12.7046 1.004119  1.000678E-5 
514 18.2466 1.004076  9.943876E-6 
515 11.0611 1.006146  1.505551E-5 
516 4.6401 1.008355  2.055269E-5 
517 -12.2916 1.009035  2.231850E-5 
518 5.4809 0.983686 -4.046880E-5 
519 0.0536 1.010339  2.575443E-5 
520 -5.6794 1.023288  5.825084E-5 
521 10.7171 1.004524  1.136380E-5 
522 -10.9156 1.011343  2.860872E-5 
523 -13.0177 1.009871  2.500009E-5 
524 -1.9720 1.022932  5.831811E-5 
525 -14.0115 1.004157  1.061614E-5 
526 -3.9213 0.987859 -3.113194E-5 
527 -12.0622 1.006174  1.589470E-5 
528 -13.9733 1.008025  2.074740E-5 
529 -13.3999 1.023095  5.995116E-5 
530 10.2585 1.019448  5.069080E-5 
531 -19.4006 1.016115  4.217411E-5 
532 -17.5660 1.016526  4.342654E-5 
533 18.3995 1.004721  1.245727E-5 
534 12.5517 1.037445  9.920155E-5 
535 11.1758 1.011399  3.032173E-5 
536 -16.8398 0.982424 -4.694096E-5 
537 -1.0165 1.018935  5.077708E-5 
538 -11.9858 1.009277  2.497739E-5 
539 -13.0177 1.018044  4.877823E-5 
540 8.3475 1.013803  3.746428E-5 
541 -11.7565 1.007662  2.087996E-5 
542 -18.4833 1.005844  1.598877E-5 
543 -5.7941 1.030359  8.339856E-5 
544 -1.5516 1.020275  5.592056E-5 
545 -6.5585 0.991022 -2.486179E-5 
546 13.5455 1.018988  5.278804E-5 
547 16.4120 1.025636  7.155562E-5 
548 -9.8072 0.980261 -5.531416E-5 
549 -5.1443 0.996369 -1.021606E-5 
550 0.8563 1.010736  3.032498E-5 
551 12.4371 1.000504  1.428902E-6 
552 -15.1963 1.015304  4.357018E-5 
553 14.6156 1.007246  2.071109E-5 
554 -11.1449 1.001862  5.342932E-6 
555 14.6921 1.012062  3.475017E-5 
