Filename:	Wind_Profile_100_20181024_035752.hpl
System ID:	100
Number of gates:	556
Range gate length (m):	18.0
Gate length (pts):	6
Pulses/ray:	1500
No. of rays in file:	3
Scan type:	Wind profile
Focus range:	65535
Start time:	20181024 03:57:59.41
Resolution (m/s):	0.0382
Altitude of measurement (center of gate) = (range gate + 0.5) * Gate length
Data line 1: Decimal time (hours)  Azimuth (degrees)  Elevation (degrees) Pitch (degrees) Roll (degrees)
f9.6,1x,f6.2,1x,f6.2
Data line 2: Range Gate  Doppler (m/s)  Intensity (SNR + 1)  Beta (m-1 sr-1)
i3,1x,f6.4,1x,f8.6,1x,e12.6 - repeat for no. gates
****
 3.966475  91.00  90.00 -0.00 0.09
  0 -0.1375 0.827602 -9.706858E-6
  1 -1.3223 0.827857 -9.699014E-6
  2 -5.7176 1.093320  5.262780E-6
  3 -0.2903 1.018869  1.065406E-6
  4 -13.7439 1.007721  4.365585E-7
  5 -1.8956 1.042514  2.407969E-6
  6 -11.2596 1.030043  1.704907E-6
  7 2.1175 1.018783  1.068252E-6
  8 -3.8066 1.004256  2.426328E-7
  9 2.0793 1.037262  2.130212E-6
 10 -4.3417 1.010955  6.281610E-7
 11 4.6401 0.995013 -2.868766E-7
 12 1.4678 1.012890  7.440153E-7
 13 -3.6920 1.030750  1.781436E-6
 14 0.7798 1.020485  1.191410E-6
 15 2.8820 0.997244 -1.609636E-7
 16 -3.9595 1.022200  1.302268E-6
 17 -5.8323 1.004242  2.499719E-7
 18 1.0856 1.021920  1.298115E-6
 19 1.0856 1.038864  2.313232E-6
 20 0.8945 1.028719  1.718489E-6
 21 0.1301 1.034320  2.064995E-6
 22 -0.6343 1.040251  2.435779E-6
 23 2.1558 1.044119  2.685807E-6
 24 -0.7872 1.043517  2.665491E-6
 25 0.0919 1.036971  2.278972E-6
 26 11.5962 1.020726  1.286054E-6
 27 -0.2903 1.019090  1.192524E-6
 28 0.6652 1.015397  9.685385E-7
 29 2.0411 1.016278  1.031300E-6
 30 1.7736 1.021938  1.400123E-6
 31 -0.1375 1.009352  6.013747E-7
 32 14.2334 1.023288  1.509030E-6
 33 0.3212 1.019946  1.302665E-6
 34 10.4878 1.007989  5.259599E-7
 35 3.3788 1.001115  7.401519E-8
 36 0.3594 1.033316  2.229919E-6
 37 -3.8066 1.020684  1.396286E-6
 38 -0.7490 1.027782  1.891711E-6
 39 2.9202 0.998523 -1.014534E-7
 40 -3.9977 1.017864  1.238166E-6
 41 -5.4501 0.994853 -3.599791E-7
 42 17.9790 1.001749  1.234609E-7
 43 -3.9595 1.014456  1.030051E-6
 44 -1.7809 0.993123 -4.946756E-7
 45 1.5060 1.020403  1.481718E-6
 46 1.2003 1.014355  1.052652E-6
 47 -4.4946 1.006611  4.895698E-7
 48 -6.1763 1.041541  3.107060E-6
 49 -14.6612 1.031881  2.408581E-6
 50 0.5887 1.022272  1.699786E-6
 51 0.7798 1.015708  1.211126E-6
 52 1.4296 1.031879  2.483567E-6
 53 -2.3542 1.000630  4.961775E-8
 54 -3.8448 1.037041  2.946713E-6
 55 -3.1569 1.015925  1.280385E-6
 56 -3.6537 0.992012 -6.490921E-7
 57 1.0092 0.994661 -4.385275E-7
 58 -0.5579 1.014786  1.227763E-6
 59 1.8500 1.018666  1.566943E-6
 60 14.1188 1.012520  1.062573E-6
 61 4.1432 1.026451  2.269761E-6
 62 0.5505 1.031106  2.698957E-6
 63 -3.0422 1.005382  4.722331E-7
 64 14.3099 1.019807  1.757347E-6
 65 -5.4883 1.008952  8.032374E-7
 66 -15.3110 1.031197  2.830993E-6
 67 2.7291 1.012404  1.138448E-6
 68 -13.3999 1.018350  1.703406E-6
 69 -4.7621 1.026172  2.457450E-6
 70 -3.7302 0.998851 -1.091145E-7
 71 -15.4256 1.022038  2.117296E-6
 72 -5.0297 1.021242  2.064478E-6
 73 -5.4119 0.991878 -7.984986E-7
 74 -7.3993 1.037668  3.746623E-6
 75 15.4947 1.003165  3.184343E-7
 76 14.0041 1.003320  3.379850E-7
 77 -12.5973 0.994845 -5.309354E-7
 78 15.1125 1.030868  3.216475E-6
 79 14.3099 0.978021 -2.317109E-6
 80 -14.5848 1.001251  1.334824E-7
 81 5.6720 1.037037  3.997163E-6
 82 -4.0742 1.006262  6.837825E-7
 83 15.0743 1.029593  3.269484E-6
 84 -6.7878 1.008611  9.625560E-7
 85 -5.3354 1.035712  4.039356E-6
 86 -4.4564 1.006296  7.205003E-7
 87 13.3544 1.040962  4.743303E-6
 88 2.6909 1.029569  3.464428E-6
 89 -3.5773 1.007206  8.543196E-7
 90 14.8832 1.012170  1.459803E-6
 91 15.5329 1.003098  3.759477E-7
 92 -14.7759 1.005790  7.109971E-7
 93 14.4245 1.027273  3.388645E-6
 94 -7.6669 1.006859  8.623139E-7
 95 16.1444 1.019673  2.502336E-6
 96 4.2961 0.998133 -2.403411E-7
 97 -3.9977 1.022678  2.952982E-6
 98 -14.6230 1.016164  2.129414E-6
 99 10.7936 1.019676  2.622568E-6
100 3.4170 1.020860  2.813011E-6
101 2.9584 1.020637  2.815496E-6
102 4.7165 1.040086  5.532979E-6
103 -15.0434 1.015428  2.154456E-6
104 -15.9989 1.029162  4.119701E-6
105 5.0987 0.979421 -2.941105E-6
106 -4.9915 1.006791  9.817636E-7
107 -3.9595 0.996677 -4.859436E-7
108 -5.7176 1.008371  1.238478E-6
109 8.6532 0.998892 -1.657519E-7
110 13.9277 1.037040  5.607578E-6
111 -5.3354 1.025811  3.952607E-6
112 -13.8586 0.996013 -6.176257E-7
113 15.9916 1.010974  1.719307E-6
114 14.1188 1.022783  3.610417E-6
115 -7.5140 1.020385  3.267243E-6
116 -6.0616 1.007248  1.174888E-6
117 -3.4244 1.025243  4.138683E-6
118 3.1877 1.016008  2.654371E-6
119 13.7748 1.009955  1.669288E-6
120 -5.0297 1.024093  4.085823E-6
121 -5.4501 1.016526  2.834181E-6
122 0.5505 1.013967  2.422203E-6
123 14.8832 1.012684  2.224318E-6
124 -4.9915 1.011374  2.016968E-6
125 15.3418 1.017395  3.119051E-6
126 3.4170 0.996504 -6.337570E-7
127 -14.4319 1.016381  3.002927E-6
128 -14.0497 1.003180  5.893869E-7
129 -9.9601 1.006299  1.180369E-6
130 4.3726 1.014533  2.753370E-6
131 -5.1443 1.004267  8.171882E-7
132 -13.2088 0.995736 -8.255546E-7
133 -14.2790 1.028652  5.608426E-6
134 -13.0177 1.013213  2.614479E-6
135 -2.8129 1.023514  4.703315E-6
136 2.4615 1.002895  5.853108E-7
137 -5.0297 0.994389 -1.146718E-6
138 -4.7621 1.000689  1.422415E-7
139 14.1570 1.013404  2.798626E-6
140 3.7228 0.993959 -1.274782E-6
141 -13.2471 0.987617 -2.640916E-6
142 -13.5146 1.033743  7.272941E-6
143 16.1827 0.999260 -1.612043E-7
144 -15.0816 1.038879  8.558301E-6
145 -5.2590 1.011096  2.468261E-6
146 -4.1124 0.996140 -8.676963E-7
147 5.7103 1.009041  2.053457E-6
148 3.8757 1.007147  1.640210E-6
149 -14.3172 1.017216  3.992259E-6
150 14.4245 1.032574  7.632074E-6
151 -5.6412 1.022186  5.251847E-6
152 -13.6675 1.004588  1.097286E-6
153 -3.5391 1.014637  3.536684E-6
154 -6.5585 1.036184  8.832452E-6
155 -5.6794 1.004022  9.918542E-7
156 -2.6218 1.006303  1.570139E-6
157 -14.6230 1.026167  6.584444E-6
158 13.2779 1.009185  2.334625E-6
159 -15.2727 1.004410  1.132179E-6
160 -7.8580 1.019116  4.957019E-6
161 16.8324 0.998693 -3.422697E-7
162 18.8199 1.006669  1.764106E-6
163 -12.2533 1.000180  4.797016E-8
164 16.7942 1.001969  5.312043E-7
165 2.5762 0.995748 -1.158619E-6
166 -5.6030 1.036093  9.931485E-6
167 3.6464 1.034828  9.677725E-6
168 -8.5842 1.007849  2.202414E-6
169 -12.3298 1.008209  2.325883E-6
170 6.2836 1.018177  5.200257E-6
171 -4.6857 0.992180 -2.258984E-6
172 -3.7684 1.004455  1.299427E-6
173 -6.0998 0.993334 -1.962955E-6
174 -4.3417 1.018887  5.615108E-6
175 -15.6167 1.015629  4.690916E-6
176 -12.1769 1.004068  1.232718E-6
177 4.1432 1.017608  5.386007E-6
178 5.6720 1.039395  1.216467E-5
179 -5.9852 1.017789  5.544887E-6
180 -15.7696 1.020110  6.327408E-6
181 13.0868 1.007168  2.276580E-6
182 5.7867 1.002988  9.579745E-7
183 -10.8010 1.001209  3.912312E-7
184 -3.9977 1.014008  4.574496E-6
185 15.5711 1.010034  3.306926E-6
186 -2.6600 1.028710  9.549936E-6
187 -14.2790 0.973255 -8.978166E-6
188 3.3788 1.020015  6.780427E-6
189 15.7622 1.012456  4.258199E-6
190 -4.9532 1.016996  5.863495E-6
191 16.5649 1.014894  5.184810E-6
192 5.1752 1.008334  2.927663E-6
193 2.1558 1.029568  1.048031E-5
194 3.4553 1.021457  7.673834E-6
195 -15.0052 1.013321  4.806653E-6
196 3.8757 1.013270  4.831240E-6
197 16.4884 0.991508 -3.119199E-6
198 3.1495 1.004549  1.685882E-6
199 -13.8204 1.027822  1.040139E-5
200 -4.1888 1.018291  6.898505E-6
201 -4.1124 0.976775 -8.836428E-6
202 -6.9025 1.003143  1.206120E-6
203 2.2322 0.994531 -2.117206E-6
204 14.2716 1.001056  4.125532E-7
205 -13.3999 1.005627  2.216466E-6
206 -7.7051 1.007522  2.988785E-6
207 -12.8266 1.001005  4.026044E-7
208 -7.8198 1.017496  7.072235E-6
209 -5.6794 1.007080  2.886338E-6
210 16.4502 1.020591  8.466040E-6
211 -12.9795 0.997601 -9.948150E-7
212 -6.5967 1.015833  6.621250E-6
213 -4.6475 0.993385 -2.789593E-6
214 -18.0628 1.006483  2.756974E-6
215 4.7930 1.006705  2.875396E-6
216 -13.8968 1.019275  8.335562E-6
217 4.6783 1.012445  5.426999E-6
218 -13.7057 1.027905  1.226968E-5
219 -13.9733 1.007871  3.489595E-6
220 13.8512 1.001584  7.082258E-7
221 14.1570 0.997036 -1.335947E-6
222 -11.7182 1.000351  1.593387E-7
223 -4.1506 1.025829  1.183354E-5
224 5.9396 1.018045  8.335181E-6
225 -2.5836 1.013075  6.088784E-6
226 -2.7364 1.009708  4.557255E-6
227 -14.0497 1.009260  4.382371E-6
228 12.9339 1.009114  4.348110E-6
229 -14.1261 0.999095 -4.351350E-7
230 -16.1518 1.014519  7.038519E-6
231 4.9841 1.003512  1.716179E-6
232 3.7992 1.011187  5.510111E-6
233 -19.1330 0.990486 -4.723321E-6
234 4.2579 1.030454  1.523917E-5
235 4.5254 1.041008  2.068279E-5
236 2.0793 0.998632 -6.954768E-7
237 -13.4382 0.999993 -3.721035E-9
238 -4.8768 0.999584 -2.149781E-7
239 -18.7890 1.034692  1.805270E-5
240 1.8882 1.003456  1.812450E-6
241 4.1050 0.981035 -1.002298E-5
242 14.4627 1.023149  1.232893E-5
243 4.9459 1.022706  1.218652E-5
244 -3.2715 1.019409  1.049712E-5
245 1.6589 1.017214  9.381128E-6
246 12.0549 1.017834  9.793589E-6
247 -5.0297 1.014613  8.086092E-6
248 -14.2790 1.029289  1.632984E-5
249 -4.3417 0.998720 -7.189169E-7
250 -5.3354 1.005478  3.100689E-6
251 -6.8643 0.994726 -3.007374E-6
252 -2.6218 1.030840  1.771938E-5
253 -2.3542 1.013472  7.798659E-6
254 -4.0742 1.026111  1.522783E-5
255 -1.7427 0.998968 -6.063170E-7
256 -15.9989 1.014892  8.814201E-6
257 -5.5648 0.986531 -8.031479E-6
258 -2.8511 1.024698  1.483570E-5
259 -6.0234 1.013531  8.187566E-6
260 -6.8643 1.010041  6.120626E-6
261 -13.8586 0.999638 -2.223180E-7
262 -4.1124 1.010886  6.733012E-6
263 -6.9025 0.995265 -2.949639E-6
264 14.1188 1.014628  9.179347E-6
265 4.0286 1.016469  1.040912E-5
266 13.7366 1.006336  4.033593E-6
267 -7.0554 1.003345  2.144876E-6
268 -11.4125 0.991817 -5.284581E-6
269 3.5699 1.035416  2.303415E-5
270 -2.1631 0.991749 -5.404813E-6
271 -4.2270 0.991735 -5.452109E-6
272 -4.7621 0.997247 -1.829107E-6
273 4.0286 0.996130 -2.589640E-6
274 12.7046 1.012478  8.407269E-6
275 13.3544 1.030894  2.096261E-5
276 -13.8586 1.015824  1.081228E-5
277 -13.8586 1.016184  1.113548E-5
278 -13.1706 1.022113  1.532133E-5
279 -3.3098 1.037108  2.588944E-5
280 12.1695 0.989856 -7.126345E-6
281 -14.0497 1.023715  1.677540E-5
282 -5.2972 0.987854 -8.651082E-6
283 4.7165 1.012782  9.166664E-6
284 12.8957 0.998009 -1.437956E-6
285 12.9721 1.022855  1.661608E-5
286 4.7165 0.997965 -1.489462E-6
287 14.4245 1.002258  1.664426E-6
288 3.7228 1.016763  1.243776E-5
289 5.5192 1.015392  1.149784E-5
290 -14.2026 1.023675  1.780470E-5
291 14.3863 1.003991  3.021546E-6
292 -14.8141 1.023723  1.808113E-5
293 14.1188 1.034252  2.628085E-5
294 3.8757 1.019143  1.478597E-5
295 3.7610 1.001617  1.257237E-6
296 16.1827 1.030715  2.404077E-5
297 5.9014 1.011221  8.840946E-6
298 14.3099 1.016927  1.342472E-5
299 -12.9413 1.007594  6.062859E-6
300 4.4108 1.006370  5.118540E-6
301 -16.5340 1.024451  1.977709E-5
302 2.8437 0.992685 -5.955430E-6
303 -15.0052 0.998555 -1.184220E-6
304 15.2272 1.021323  1.758666E-5
305 14.9978 1.019644  1.630643E-5
306 -4.3035 1.027779  2.320935E-5
307 0.3976 1.012210  1.026712E-5
308 5.8249 1.029373  2.485778E-5
309 -10.5334 1.011542  9.830453E-6
310 3.7610 1.021250  1.821526E-5
311 -14.3555 0.990949 -7.807734E-6
312 -5.5648 1.007985  6.931897E-6
313 -12.6355 0.997016 -2.607418E-6
314 14.0423 1.017524  1.540733E-5
315 -6.4820 1.009226  8.163189E-6
316 -17.6042 1.000279  2.482556E-7
317 0.6270 1.024161  2.164712E-5
318 -6.5967 0.982757 -1.554539E-5
319 5.7103 1.000878  7.964704E-7
320 12.6282 1.022571  2.060427E-5
321 -0.7490 1.037290  3.425252E-5
322 3.9521 0.997145 -2.639166E-6
323 12.7428 1.024837  2.309832E-5
324 -13.9733 1.013654  1.277628E-5
325 -14.6994 1.003815  3.591369E-6
326 4.7548 1.019499  1.847091E-5
327 -15.3492 1.005128  4.887183E-6
328 -8.1637 1.018542  1.778074E-5
329 2.2322 1.011236  1.084026E-5
330 -8.4313 1.038403  3.727597E-5
331 3.2642 0.996710 -3.212607E-6
332 -5.2208 1.020055  1.970335E-5
333 14.6921 1.008107  8.012969E-6
334 -4.6857 1.011022  1.095997E-5
335 12.9339 0.999557 -4.426893E-7
336 1.4296 1.018085  1.819957E-5
337 16.6031 0.996848 -3.190591E-6
338 -14.3555 1.014357  1.462126E-5
339 4.9459 1.006739  6.903986E-6
340 -14.6612 1.010856  1.118754E-5
341 -14.6994 1.021206  2.198403E-5
342 -15.4256 0.995166 -5.041547E-6
343 15.2654 0.985363 -1.535425E-5
344 -13.6293 1.012924  1.363710E-5
345 -13.6675 1.007682  8.152908E-6
346 -5.7176 1.012005  1.281578E-5
347 3.9903 1.018329  1.968242E-5
348 -2.0485 0.991020 -9.698712E-6
349 -15.4638 1.030452  3.308228E-5
350 -6.0234 0.990741 -1.011691E-5
351 -2.5836 1.008510  9.352672E-6
352 11.8638 0.992685 -8.085176E-6
353 7.1244 1.033269  3.698579E-5
354 1.6207 1.023306  2.605875E-5
355 -15.7314 1.011667  1.312001E-5
356 -15.0816 1.004264  4.822856E-6
357 4.7548 1.025555  2.906696E-5
358 -6.5967 0.998099 -2.174659E-6
359 17.6350 0.997831 -2.495046E-6
360 3.4935 0.983600 -1.897316E-5
361 -12.7502 1.005658  6.582756E-6
362 -6.3292 1.014992  1.754167E-5
363 5.2134 1.001071  1.260163E-6
364 14.6538 0.994529 -6.473569E-6
365 -6.0234 0.993901 -7.256594E-6
366 -16.0754 0.998940 -1.268113E-6
367 2.9966 1.027244  3.277970E-5
368 -2.8129 1.021277  2.574333E-5
369 -14.7377 1.033327  4.054677E-5
370 -16.2283 1.004542  5.556375E-6
371 -11.6800 1.001665  2.048541E-6
372 -14.4701 0.994123 -7.269838E-6
373 -15.0434 1.021631  2.690333E-5
374 3.4553 1.008601  1.075684E-5
375 14.2334 1.014717  1.850540E-5
376 4.2579 1.018129  2.292114E-5
377 5.2134 1.006106  7.761594E-6
378 2.8820 1.015964  2.040380E-5
379 -14.1644 1.005960  7.659087E-6
380 1.3531 0.978022 -2.839696E-5
381 -5.7176 1.021257  2.761404E-5
382 -12.7120 1.011893  1.553254E-5
383 -13.0560 0.986913 -1.718418E-5
384 4.7930 1.010290  1.358407E-5
385 13.9659 1.022097  2.932833E-5
386 -3.7302 1.010659  1.422310E-5
387 -8.2784 1.023664  3.174475E-5
388 15.5329 1.022945  3.094360E-5
389 -13.6675 1.030181  4.091991E-5
390 0.1683 0.988226 -1.604816E-5
391 15.6094 1.027915  3.824926E-5
392 -12.7120 1.009211  1.268841E-5
393 -4.9915 1.034969  4.842200E-5
394 -13.8204 1.016945  2.358748E-5
395 -6.4438 1.004049  5.665235E-6
396 5.3663 1.006691  9.412446E-6
397 -5.3737 1.005905  8.349714E-6
398 -14.4701 1.011149  1.584745E-5
399 -6.7496 1.006752  9.646880E-6
400 3.9521 1.033578  4.822450E-5
401 4.0668 1.009187  1.326241E-5
402 -15.6167 1.007665  1.112319E-5
403 4.0286 1.028106  4.099613E-5
404 -4.8003 1.012378  1.814763E-5
405 -12.5591 0.988628 -1.675926E-5
406 -5.7941 0.998507 -2.211090E-6
407 -2.8511 0.992790 -1.073398E-5
408 -4.3417 1.019037  2.848811E-5
409 4.2579 1.009801  1.474148E-5
410 -7.3229 1.004244  6.415637E-6
411 -4.6857 1.011552  1.755231E-5
412 -3.8831 0.996443 -5.431763E-6
413 -5.9852 1.009243  1.418620E-5
414 -4.8003 1.016425  2.533644E-5
415 -11.3743 1.039974  6.197285E-5
416 -13.0177 0.997127 -4.476943E-6
417 -3.8831 1.010591  1.658511E-5
418 -4.0359 1.004293  6.756343E-6
419 -5.6794 0.996417 -5.666658E-6
420 -6.9789 1.005236  8.322711E-6
421 14.7685 1.019216  3.069710E-5
422 5.4427 1.021663  3.477734E-5
423 -1.4370 1.008599  1.387257E-5
424 4.9076 1.001977  3.205705E-6
425 -14.8523 1.028342  4.617872E-5
426 -15.0816 1.015727  2.575128E-5
427 14.7685 1.001094  1.799946E-6
428 -15.5021 1.020559  3.399460E-5
429 2.9966 0.996943 -5.080077E-6
430 -4.9915 1.013962  2.331292E-5
431 -2.6982 1.026296  4.412173E-5
432 -15.9989 0.998865 -1.913842E-6
433 2.6526 1.005161  8.744600E-6
434 10.3732 1.026684  4.542827E-5
435 -4.8003 1.028078  4.803373E-5
436 -5.5265 1.016439  2.825775E-5
437 -5.4119 1.012196  2.106528E-5
438 -15.2345 1.023259  4.036775E-5
439 15.4565 1.003013  5.253916E-6
440 -5.1443 1.019299  3.381758E-5
441 -13.5910 1.013484  2.374093E-5
442 2.3851 1.008608  1.522796E-5
443 -5.5265 0.999763 -4.208819E-7
444 -5.7941 1.019939  3.561090E-5
445 4.1050 1.003792  6.804290E-6
446 16.1827 1.026736  4.820428E-5
447 -6.1763 1.028376  5.140281E-5
448 -5.0679 1.001916  3.487866E-6
449 -5.9470 1.015578  2.848602E-5
450 -11.5654 1.008069  1.482561E-5
451 -13.8968 1.019981  3.688251E-5
452 -6.1763 1.026634  4.939307E-5
453 4.2961 1.026358  4.911080E-5
454 -5.1826 0.998334 -3.119237E-6
455 0.5505 1.023157  4.355056E-5
456 -4.3035 1.001519  2.869364E-6
457 -4.0742 1.014093  2.675010E-5
458 3.6464 0.992023 -1.521164E-5
459 -3.0804 1.000207  3.969445E-7
460 -14.4319 1.015698  3.021210E-5
461 -13.6293 0.980666 -3.738272E-5
462 6.5511 1.021035  4.085902E-5
463 -4.9150 1.025096  4.897028E-5
464 3.2642 1.010082  1.976319E-5
465 15.0361 1.029942  5.896217E-5
466 -3.2333 1.035067  6.937065E-5
467 -16.5340 1.014780  2.937190E-5
468 2.7673 1.009616  1.919679E-5
469 -14.2408 1.011864  2.379221E-5
470 2.3087 1.007565  1.523860E-5
471 -4.8768 1.001504  3.043996E-6
472 4.9459 1.009333  1.897052E-5
473 -14.4319 0.991711 -1.692507E-5
474 -8.3166 1.013882  2.847343E-5
475 4.8694 1.018426  3.796255E-5
476 -4.2270 1.017983  3.721633E-5
477 4.6783 1.026306  5.468550E-5
478 14.9596 0.990722 -1.937355E-5
479 3.9521 1.016517  3.464334E-5
480 3.9521 1.011322  2.385374E-5
481 4.2961 0.989203 -2.284889E-5
482 -14.6230 1.029894  6.354139E-5
483 -4.4564 1.007680  1.639708E-5
484 16.4884 1.004573  9.806381E-6
485 -8.2020 1.028994  6.245017E-5
486 -5.0297 1.009240  1.999009E-5
487 -3.6920 1.005045  1.096264E-5
488 -5.3737 1.034547  7.539668E-5
489 -15.9225 1.001016  2.227394E-6
490 14.5010 1.034335  7.559101E-5
491 -11.7182 1.009682  2.140861E-5
492 16.6795 1.017052  3.786936E-5
493 13.8894 1.018903  4.216427E-5
494 -10.1130 1.009410  2.108092E-5
495 -15.5785 1.029838  6.713320E-5
496 5.3663 1.022717  5.133266E-5
497 -2.5071 1.014493  3.289107E-5
498 -8.0491 0.996669 -7.592734E-6
499 -8.7753 1.024068  5.509468E-5
500 -2.7747 1.018894  4.343647E-5
501 16.9089 1.002014  4.649507E-6
502 -12.6355 1.007429  1.722477E-5
503 -16.3047 1.021835  5.084666E-5
504 -15.5785 1.014137  3.306188E-5
505 -8.3166 1.023835  5.597874E-5
506 -5.2972 1.004717  1.112590E-5
507 3.5317 1.027491  6.511665E-5
508 -3.0804 0.980568 -4.622156E-5
509 -14.1261 1.012789  3.055079E-5
510 4.3726 1.014437  3.463237E-5
511 -6.3292 0.994669 -1.284206E-5
512 -3.6155 1.022219  5.375097E-5
513 -15.9989 1.007995  1.942291E-5
514 6.2071 1.005340  1.302808E-5
515 -2.5836 1.003902  9.559089E-6
516 -3.9213 0.999640 -8.857687E-7
517 -6.0998 1.012373  3.056605E-5
518 -5.9087 1.011951  2.964653E-5
519 -14.3172 1.016521  4.115406E-5
520 -3.9213 1.041280  1.032556E-4
521 4.9459 1.004572  1.148355E-5
522 -4.0359 1.009895  2.495713E-5
523 -14.0115 1.005793  1.467079E-5
524 -13.7439 1.031482  8.006130E-5
525 14.5392 1.012984  3.315627E-5
526 5.6720 1.003080  7.896450E-6
527 -14.7377 1.005508  1.418217E-5
528 4.0286 1.037541  9.705238E-5
529 5.8632 1.014713  3.819329E-5
530 -8.7753 1.010149  2.645327E-5
531 -13.8586 1.014718  3.851877E-5
532 -14.2790 1.014604  3.837591E-5
533 -14.4319 1.021329  5.627641E-5
534 17.1000 1.011769  3.117970E-5
535 2.9584 1.004099  1.090247E-5
536 -14.6994 1.013196  3.524425E-5
537 4.5254 0.988014 -3.214221E-5
538 -7.8198 1.008789  2.366267E-5
539 -11.7182 1.004554  1.231052E-5
540 6.3982 1.003376  9.161968E-6
541 -15.9607 1.002442  6.655818E-6
542 -14.1261 1.006627  1.813121E-5
543 -15.7696 1.011502  3.159589E-5
544 -13.5146 1.008294  2.287602E-5
545 -6.6732 1.007281  2.016296E-5
546 -14.3555 1.013368  3.716375E-5
547 13.8894 1.010991  3.067909E-5
548 -5.6794 1.006588  1.846105E-5
549 -6.3674 1.004393  1.235827E-5
550 -14.4701 0.994646 -1.512330E-5
551 -13.4382 0.975391 -6.978781E-5
552 15.3800 1.000554  1.577748E-6
553 -14.0497 1.035532  1.015616E-4
554 -18.9801 1.011855  3.401957E-5
555 -5.0297 1.023666  6.817769E-5
 3.967786 360.00  10.00 0.10 -0.01
  0 0.0154 0.892109 -6.074811E-6 
  1 -0.9019 0.885798 -6.434439E-6 
  2 -9.4250 1.061847  3.487836E-6 
  3 1.9264 1.012844  7.252066E-7 
  4 0.9709 1.015469  8.746479E-7 
  5 1.0092 1.018600  1.053464E-6 
  6 -11.2978 1.014879  8.443958E-7 
  7 0.6652 1.007347  4.178705E-7 
  8 14.3481 0.992195 -4.450039E-7 
  9 -10.4952 1.037798  2.160864E-6 
 10 16.9853 1.028191  1.616408E-6 
 11 1.1620 1.010863  6.248348E-7 
 12 16.5649 1.026373  1.522267E-6 
 13 -8.5460 1.003119  1.807195E-7 
 14 2.0793 1.003411  1.983868E-7 
 15 1.2767 0.997627 -1.385656E-7 
 16 0.7798 1.018656  1.094382E-6 
 17 0.1683 1.008119  4.784752E-7 
 18 -0.5197 1.019527  1.156387E-6 
 19 2.0793 1.018726  1.114618E-6 
 20 -9.8837 1.002376  1.421507E-7 
 21 -0.7872 1.027559  1.658165E-6 
 22 -0.4432 1.000988  5.980133E-8 
 23 -0.5961 1.035114  2.137588E-6 
 24 13.4308 1.029856  1.828728E-6 
 25 -4.0359 1.006582  4.057277E-7 
 26 -0.9783 0.991141 -5.496747E-7 
 27 17.2528 1.023887  1.492216E-6 
 28 2.6144 1.004232  2.662368E-7 
 29 -9.8837 0.997319 -1.698438E-7 
 30 -10.3805 1.004994  3.187190E-7 
 31 0.8181 1.011008  7.078166E-7 
 32 18.1701 0.991714 -5.369235E-7 
 33 -0.4050 1.021651  1.414002E-6 
 34 -0.8254 1.026271  1.729565E-6 
 35 1.2385 1.021261  1.411267E-6 
 36 1.5060 1.017754  1.188322E-6 
 37 -7.5522 1.003122  2.107495E-7 
 38 17.4057 1.009176  6.248071E-7 
 39 2.6526 1.031317  2.151260E-6 
 40 -9.4632 1.000224  1.551279E-8 
 41 17.0617 0.989825 -7.116255E-7 
 42 -10.8392 1.000019  1.367169E-9 
 43 -10.6099 1.003544  2.525032E-7 
 44 15.8769 1.019303  1.388450E-6 
 45 0.2065 1.016340  1.186677E-6 
 46 2.6526 1.008469  6.210515E-7 
 47 3.3406 1.019276  1.427496E-6 
 48 1.2003 1.031406  2.349032E-6 
 49 -9.1575 1.032740  2.473462E-6 
 50 -10.4188 1.010393  7.931483E-7 
 51 -3.7302 1.005052  3.895231E-7 
 52 -11.0685 1.022295  1.736907E-6 
 53 0.3594 1.000308  2.423816E-8 
 54 2.7291 1.030190  2.401746E-6 
 55 -9.5397 0.991819 -6.577481E-7 
 56 -1.2841 1.011787  9.578197E-7 
 57 2.1940 1.001933  1.587913E-7 
 58 2.1558 1.014232  1.181781E-6 
 59 -10.8392 1.009147  7.678525E-7 
 60 -9.5397 0.994972 -4.267100E-7 
 61 -10.8774 1.004054  3.478412E-7 
 62 18.8581 1.016296  1.413927E-6 
 63 -17.6806 0.999021 -8.592088E-8 
 64 1.6207 1.002842  2.521954E-7 
 65 -7.5522 0.993139 -6.156219E-7 
 66 4.8694 1.020942  1.900404E-6 
 67 17.6350 1.028316  2.598900E-6 
 68 0.7034 1.019558  1.815615E-6 
 69 14.9214 0.999586 -3.882657E-8 
 70 -1.6663 1.005113  4.856697E-7 
 71 0.0154 0.999785 -2.063984E-8 
 72 -0.5579 1.015034  1.461097E-6 
 73 14.6921 1.010403  1.022771E-6 
 74 0.9709 1.013412  1.333991E-6 
 75 -9.9219 1.023992  2.414206E-6 
 76 -10.4570 1.009172  9.336964E-7 
 77 15.7240 1.009596  9.883382E-7 
 78 15.3036 1.023695  2.469101E-6 
 79 1.6971 0.988639 -1.197742E-6 
 80 -10.0748 1.000343  3.658860E-8 
 81 2.9202 1.025016  2.699838E-6 
 82 14.5010 0.983365 -1.816411E-6 
 83 -0.1375 1.015046  1.662272E-6 
 84 0.0536 1.000254  2.844557E-8 
 85 18.7817 1.022438  2.537953E-6 
 86 15.8387 1.011259  1.288499E-6 
 87 -11.6418 1.012564  1.454881E-6 
 88 18.9728 1.028343  3.320783E-6 
 89 18.3612 0.992607 -8.764951E-7 
 90 -8.1255 1.004735  5.679375E-7 
 91 -9.1957 1.018193  2.208016E-6 
 92 -6.6349 0.992330 -9.419294E-7 
 93 -8.7371 1.015773  1.959801E-6 
 94 -5.9852 1.000888  1.116477E-7 
 95 1.6589 1.022848  2.906259E-6 
 96 14.1570 0.987425 -1.618344E-6 
 97 -7.3611 1.018326  2.386197E-6 
 98 -1.1312 1.030579  4.028571E-6 
 99 16.9089 1.001252  1.668386E-7 
100 1.4296 1.014851  2.002704E-6 
101 15.6476 1.007521  1.026122E-6 
102 -11.2214 1.015822  2.183825E-6 
103 15.9916 1.016699  2.331873E-6 
104 -8.9664 1.033533  4.737216E-6 
105 -9.0810 0.991630 -1.196152E-6 
106 -10.1512 1.002242  3.241766E-7 
107 18.5141 1.003671  5.369760E-7 
108 15.3800 1.001862  2.755352E-7 
109 -8.6606 1.022057  3.301149E-6 
110 16.0680 0.994656 -8.089831E-7 
111 13.0868 1.010275  1.573417E-6 
112 16.3738 1.013614  2.108688E-6 
113 15.6858 1.017732  2.778213E-6 
114 17.5204 0.998393 -2.546635E-7 
115 0.7798 1.003872  6.205780E-7 
116 3.4935 0.992807 -1.166076E-6 
117 -9.3486 1.000058  9.446511E-9 
118 2.8055 1.003639  6.033283E-7 
119 -8.4695 1.012123  2.032963E-6 
120 17.4439 1.016542  2.805333E-6 
121 16.1444 1.016287  2.793204E-6 
122 -9.5015 1.014435  2.503338E-6 
123 -9.6161 1.001672  2.932193E-7 
124 -12.3680 1.026132  4.633932E-6 
125 -10.6099 0.989057 -1.962206E-6 
126 -10.8774 1.021329  3.867111E-6 
127 15.4565 0.997472 -4.634061E-7 
128 0.8181 1.004721  8.749754E-7 
129 2.8055 0.998157 -3.452701E-7 
130 -9.6543 0.998811 -2.252379E-7 
131 -9.0428 1.026343  5.045602E-6 
132 -10.5334 1.004057  7.855285E-7 
133 -8.6606 1.017179  3.362661E-6 
134 -9.2721 0.997744 -4.463811E-7 
135 1.1238 1.015422  3.084833E-6 
136 14.5392 1.013808  2.791772E-6 
137 0.8181 1.029294  5.986875E-6 
138 15.8769 1.020211  4.175045E-6 
139 0.7798 1.011719  2.446844E-6 
140 -8.1255 1.004674  9.863402E-7 
141 17.4822 1.000387  8.253473E-8 
142 0.2830 1.003317  7.150003E-7 
143 -9.9601 1.006140  1.337386E-6 
144 1.0092 1.008168  1.797905E-6 
145 -7.1700 1.000833  1.852697E-7 
146 0.8563 0.993200 -1.528397E-6 
147 17.0235 1.005464  1.240974E-6 
148 -9.5779 1.002473  5.676773E-7 
149 1.8118 1.018562  4.304312E-6 
150 16.0298 1.027992  6.558544E-6 
151 -8.6224 0.997403 -6.147775E-7 
152 14.5774 1.002720  6.505361E-7 
153 -10.9921 1.003983  9.624424E-7 
154 -9.5397 1.021371  5.216511E-6 
155 0.0154 1.008321  2.051952E-6 
156 -10.1512 1.004552  1.133807E-6 
157 15.9151 1.041360  1.040743E-5 
158 15.1889 1.008371  2.127706E-6 
159 16.0680 1.009056  2.325010E-6 
160 0.7034 1.013134  3.405953E-6 
161 -7.1318 1.002461  6.445435E-7 
162 3.1495 1.012868  3.403954E-6 
163 1.0856 0.997773 -5.950002E-7 
164 -9.2339 0.996212 -1.022172E-6 
165 16.8706 0.987873 -3.304437E-6 
166 -0.4432 1.008657  2.382218E-6 
167 -12.5591 1.035087  9.749730E-6 
168 18.0172 1.006471  1.815812E-6 
169 0.7416 1.000543  1.539305E-7 
170 15.4947 1.008244  2.358606E-6 
171 4.3726 0.998686 -3.794743E-7 
172 -12.2916 1.003219  9.387036E-7 
173 2.1558 1.010110  2.976952E-6 
174 -9.1575 1.006786  2.017298E-6 
175 1.0092 1.000282  8.451137E-8 
176 0.8945 1.012385  3.752616E-6 
177 -5.7559 1.007235  2.213117E-6 
178 -1.4752 1.028047  8.660605E-6 
179 -8.2784 1.028034  8.738316E-6 
180 -8.8899 1.024450  7.692948E-6 
181 17.7879 1.004071  1.293036E-6 
182 12.7810 1.008795  2.819458E-6 
183 9.8763 0.994847 -1.667255E-6 
184 -19.7828 1.005651  1.845301E-6 
185 16.4502 0.995933 -1.340529E-6 
186 17.7115 1.009577  3.185655E-6 
187 15.9151 1.001386  4.653626E-7 
188 -9.4250 1.005837  1.977260E-6 
189 14.6538 1.008147  2.785129E-6 
190 15.6858 1.013253  4.572246E-6 
191 -0.4432 1.038899  1.354150E-5 
192 -11.3360 0.988334 -4.097946E-6 
193 -9.6543 1.005221  1.850567E-6 
194 -10.7245 1.023118  8.267625E-6 
195 17.7879 1.017896  6.457509E-6 
196 -9.2721 0.994910 -1.853158E-6 
197 -8.5077 1.004925  1.809004E-6 
198 -12.4827 1.027743  1.028092E-5 
199 -2.0103 1.002573  9.619696E-7 
200 -10.2276 1.010160  3.831968E-6 
201 -10.9921 1.012410  4.721602E-6 
202 -12.3680 1.012591  4.832686E-6 
203 1.9647 1.026202  1.014436E-5 
204 -9.8837 1.014449  5.642895E-6 
205 -9.5397 1.027666  1.089847E-5 
206 -10.7627 0.996562 -1.365925E-6 
207 14.6921 1.012788  5.124931E-6 
208 17.6733 1.022216  8.979825E-6 
209 -6.9789 1.013785  5.619619E-6 
210 -3.8448 1.017563  7.221300E-6 
211 -10.3041 1.005408  2.242289E-6 
212 -10.6481 1.006829  2.855871E-6 
213 -8.9664 1.010735  4.527245E-6 
214 2.4615 1.001972  8.386514E-7 
215 16.1062 1.001008  4.321819E-7 
216 -9.4250 1.013264  5.736277E-6 
217 11.2522 1.023608  1.029460E-5 
218 -9.5397 1.020885  9.183021E-6 
219 -8.1255 1.011781  5.223323E-6 
220 -7.7051 1.007747  3.463233E-6 
221 0.8945 1.005532  2.493396E-6 
222 -8.0109 1.001336  6.070785E-7 
223 17.1000 1.025319  1.160001E-5 
224 1.2767 1.005299  2.447807E-6 
225 -9.9601 0.991681 -3.873726E-6 
226 2.5380 1.001126  5.286468E-7 
227 2.3087 1.019892  9.414003E-6 
228 -7.4376 1.008371  3.993818E-6 
229 0.0154 1.003548  1.706286E-6 
230 0.4358 1.007972  3.864816E-6 
231 15.0361 1.020214  9.877539E-6 
232 17.1764 1.027607  1.359775E-5 
233 0.4358 1.011650  5.783977E-6 
234 -9.1193 1.007892  3.949066E-6 
235 -9.2721 1.017709  8.931814E-6 
236 18.8963 1.015803  8.033325E-6 
237 6.9715 1.018464  9.459788E-6 
238 18.0172 1.003161  1.632207E-6 
239 -11.1449 1.024968  1.299265E-5 
240 16.8706 1.006008  3.150752E-6 
241 17.8644 1.012539  6.627004E-6 
242 -0.1375 1.005895  3.139386E-6 
243 15.5711 1.014333  7.692690E-6 
244 -9.1957 1.001983  1.072253E-6 
245 1.5825 1.004559  2.484430E-6 
246 -9.7690 1.000100  5.502588E-8 
247 15.7240 0.989806 -5.640926E-6 
248 -0.6343 1.021911  1.221637E-5 
249 1.9647 1.002353  1.321986E-6 
250 0.3212 1.006401  3.622925E-6 
251 17.9408 1.002928  1.669719E-6 
252 -7.0936 1.013672  7.855361E-6 
253 -11.0685 1.023444  1.357112E-5 
254 11.5580 1.030865  1.799986E-5 
255 1.0856 0.988739 -6.616046E-6 
256 0.1683 1.002793  1.653417E-6 
257 12.6282 0.998245 -1.046331E-6 
258 13.8894 1.009759  5.861994E-6 
259 14.3481 0.975230 -1.498829E-5 
260 10.3349 1.018927  1.153651E-5 
261 15.1125 1.028271  1.735835E-5 
262 1.8500 1.011144  6.892446E-6 
263 -19.0948 1.011690  7.282690E-6 
264 2.3851 1.021385  1.341922E-5 
265 -9.5779 0.995711 -2.710500E-6 
266 -0.1375 1.004118  2.621311E-6 
267 18.5906 1.018741  1.201662E-5 
268 -9.3104 1.018439  1.190747E-5 
269 14.7685 1.024433  1.589101E-5 
270 -8.3931 0.992667 -4.803245E-6 
271 -2.4307 0.996536 -2.284894E-6 
272 -8.5077 1.011251  7.474694E-6 
273 -9.1957 1.012801  8.564809E-6 
274 -12.0240 0.999210 -5.323173E-7 
275 1.6207 1.026311  1.785298E-5 
276 -11.1449 0.998997 -6.851835E-7 
277 10.6789 1.019206  1.321525E-5 
278 16.6795 1.021637  1.499149E-5 
279 -8.6606 1.004506  3.143679E-6 
280 -0.3668 1.003179  2.233435E-6 
281 14.5774 1.015388  1.088509E-5 
282 -3.6537 1.000405  2.882627E-7 
283 13.9277 0.996698 -2.367844E-6 
284 -1.1694 0.975734 -1.752217E-5 
285 18.8199 1.008725  6.343479E-6 
286 -9.3486 0.989267 -7.856311E-6 
287 -9.8837 1.025164  1.854487E-5 
288 2.5380 1.007879  5.846099E-6 
289 -10.7245 1.002249  1.680056E-6 
290 16.1827 0.996776 -2.424281E-6 
291 -0.3286 1.003707  2.806247E-6 
292 17.4057 1.020508  1.563084E-5 
293 -9.1575 0.989990 -7.680439E-6 
294 -10.3041 1.018891  1.459111E-5 
295 2.8437 0.999071 -7.221171E-7 
296 -7.1318 1.045542  3.564649E-5 
297 17.5204 1.025660  2.021762E-5 
298 -10.0748 0.991853 -6.461766E-6 
299 -8.1637 1.010496  8.378864E-6 
300 -10.6863 1.005566  4.472935E-6 
301 16.6795 1.015508  1.254357E-5 
302 -9.8837 1.032607  2.654653E-5 
303 1.3531 1.025991  2.129762E-5 
304 -10.3423 1.026299  2.169073E-5 
305 5.1370 1.007287  6.048953E-6 
306 1.5442 1.001885  1.574878E-6 
307 -9.5397 1.001261  1.060316E-6 
308 15.6858 1.008331  7.050758E-6 
309 0.9327 0.990077 -8.451574E-6 
310 2.4998 0.999212 -6.758697E-7 
311 -11.7565 1.004052  3.495593E-6 
312 -9.8072 1.002226  1.932720E-6 
313 -8.1255 1.016885  1.475214E-5 
314 -10.7627 0.997134 -2.520179E-6 
315 15.6858 1.005460  4.831115E-6 
316 -18.9801 0.989837 -9.048718E-6 
317 1.6207 1.019790  1.773102E-5 
318 16.9471 1.002849  2.568367E-6 
319 -10.9921 1.032365  2.936168E-5 
320 -10.2276 1.029823  2.722469E-5 
321 -8.5460 1.020936  1.923040E-5 
322 -10.0365 1.014492  1.339460E-5 
323 -11.1832 1.005465  5.082179E-6 
324 16.3738 1.009501  8.890025E-6 
325 -10.9538 0.998149 -1.742800E-6 
326 1.1238 1.006483  6.141206E-6 
327 -8.4695 1.013060  1.244735E-5 
328 -9.9983 0.995092 -4.706575E-6 
329 17.1764 1.025974  2.505902E-5 
330 -10.2659 1.017398  1.688784E-5 
331 18.3612 1.002430  2.372766E-6 
332 16.3355 1.022865  2.246412E-5 
333 -10.7245 1.023095  2.282768E-5 
334 -11.4507 1.007970  7.925326E-6 
335 16.7942 1.012660  1.266414E-5 
336 1.8882 1.012640  1.272084E-5 
337 -9.4250 0.999315 -6.933237E-7 
338 16.5649 0.990545 -9.629379E-6 
339 -10.8774 1.024643  2.524674E-5 
340 1.2767 0.998371 -1.679249E-6 
341 16.6413 1.001086  1.126040E-6 
342 3.1495 0.996478 -3.673193E-6 
343 -11.0303 0.998051 -2.044581E-6 
344 -8.2784 1.017979  1.897083E-5 
345 -0.0228 0.991547 -8.972078E-6 
346 2.4615 1.004380  4.676042E-6 
347 -1.3223 1.008074  8.670215E-6 
348 -8.3931 0.998283 -1.854542E-6 
349 1.0474 1.018026  1.958220E-5 
350 -0.9783 1.028124  3.072970E-5 
351 15.6094 0.998566 -1.575979E-6 
352 1.4296 1.015918  1.759455E-5 
353 -11.1449 1.017130  1.904341E-5 
354 -11.1832 1.009702  1.084733E-5 
355 -0.2139 1.014855  1.670498E-5 
356 -12.0240 0.996349 -4.129186E-6 
357 16.6413 1.039664  4.511452E-5 
358 -10.5334 0.997715 -2.613419E-6 
359 -10.0365 1.009669  1.112313E-5 
360 -9.2721 0.986689 -1.539975E-5 
361 1.5825 1.005923  6.890917E-6 
362 -8.5460 1.023400  2.737888E-5 
363 -8.4695 1.017776  2.091520E-5 
364 1.2767 1.004508  5.334146E-6 
365 -8.2784 0.987573 -1.478693E-5 
366 16.2209 1.008619  1.031265E-5 
367 1.4678 1.012921  1.554704E-5 
368 -9.2721 1.022366  2.706067E-5 
369 4.7930 1.015341  1.866404E-5 
370 -9.0428 1.021539  2.635077E-5 
371 17.1764 1.027281  3.355934E-5 
372 -9.4632 0.995923 -5.043435E-6 
373 -10.6481 0.996598 -4.230789E-6 
374 17.4822 1.017631  2.204894E-5 
375 -10.6481 1.003183  4.001839E-6 
376 -2.0485 1.017417  2.202086E-5 
377 0.0919 1.016869  2.144456E-5 
378 18.1319 1.017045  2.178617E-5 
379 -8.2402 1.000321  4.126468E-7 
380 -9.8072 1.002177  2.813141E-6 
381 2.8437 1.031162  4.048057E-5 
382 17.0235 0.995579 -5.774440E-6 
383 -8.9664 0.997331 -3.505256E-6 
384 -0.1375 1.024838  3.279031E-5 
385 0.2447 1.010220  1.356424E-5 
386 16.4884 1.005317  7.094278E-6 
387 15.9533 1.024473  3.282969E-5 
388 -10.1894 1.010792  1.455447E-5 
389 -2.8511 1.003335  4.521763E-6 
390 -9.3104 0.996398 -4.909695E-6 
391 -9.3486 1.019150  2.623952E-5 
392 -6.9407 0.996475 -4.855984E-6 
393 -10.6099 1.020217  2.799497E-5 
394 -9.9219 1.022866  3.182982E-5 
395 -10.0365 1.019192  2.685577E-5 
396 15.5329 1.007676  1.079775E-5 
397 3.3406 1.023958  3.387618E-5 
398 -9.0046 1.026312  3.739992E-5 
399 -10.4188 1.000412  5.881814E-7 
400 16.2209 1.014559  2.090998E-5 
401 3.3788 0.986651 -1.927197E-5 
402 18.3612 1.011742  1.703898E-5 
403 -7.3993 1.011519  1.680185E-5 
404 1.0474 1.011174  1.638244E-5 
405 -7.8962 1.023656  3.486118E-5 
406 16.7560 1.000372  5.505233E-7 
407 8.4621 1.011375  1.693526E-5 
408 0.5505 1.028424  4.253489E-5 
409 -1.0165 1.008964  1.348162E-5 
410 -9.7308 0.998531 -2.221430E-6 
411 -10.4188 1.027430  4.167662E-5 
412 2.1558 1.028840  4.404093E-5 
413 7.8506 1.010567  1.621902E-5 
414 14.9214 1.016157  2.492320E-5 
415 9.0737 1.010497  1.627399E-5 
416 0.9327 1.001517  2.363416E-6 
417 15.2272 1.000858  1.343238E-6 
418 16.2591 1.004311  6.784461E-6 
419 -0.0228 1.000881  1.392948E-6 
420 -9.3104 1.009391  1.492817E-5 
421 -9.4250 1.043342  6.923682E-5 
422 -8.3166 1.011932  1.915513E-5 
423 -9.1957 1.012640  2.039228E-5 
424 0.9327 0.989478 -1.706026E-5 
425 16.2973 1.013065  2.128788E-5 
426 -10.3805 1.008232  1.347816E-5 
427 16.0298 1.017831  2.933955E-5 
428 -19.9356 1.014759  2.440427E-5 
429 -5.4119 0.994215 -9.612752E-6 
430 3.6464 1.013964  2.331646E-5 
431 13.2779 1.019273  3.233710E-5 
432 12.7046 1.013477  2.272245E-5 
433 -10.3805 1.021125  3.579152E-5 
434 -11.5654 1.022581  3.844406E-5 
435 2.6526 0.994450 -9.494115E-6 
436 -10.3041 1.005792  9.955734E-6 
437 -19.8592 1.002808  4.849404E-6 
438 2.1175 1.011668  2.025026E-5 
439 -8.4695 1.019166  3.342345E-5 
440 2.2704 1.002812  4.927395E-6 
441 0.8563 1.026909  4.737874E-5 
442 -9.5015 1.001073  1.897662E-6 
443 17.4822 1.024769  4.402743E-5 
444 -5.3737 1.019037  3.399977E-5 
445 1.2385 1.008261  1.482474E-5 
446 -7.4758 1.016815  3.031710E-5 
447 -10.9921 1.023221  4.206424E-5 
448 4.0286 1.032685  5.948903E-5 
449 16.4502 0.999972 -5.053129E-8 
450 0.5887 1.007802  1.433430E-5 
451 2.6526 1.008721  1.609872E-5 
452 16.5266 1.011258  2.087779E-5 
453 -10.4952 1.011293  2.104064E-5 
454 -9.4250 1.008972  1.679482E-5 
455 -19.7063 1.007474  1.405661E-5 
456 15.2272 1.001375  2.598586E-6 
457 10.2203 1.017756  3.370419E-5 
458 -4.8003 0.988743 -2.146690E-5 
459 1.3149 0.995078 -9.429348E-6 
460 9.2648 1.023538  4.530205E-5 
461 -8.7371 1.019403  3.751586E-5 
462 2.9584 0.987945 -2.341599E-5 
463 -9.3868 1.005168  1.008363E-5 
464 -7.5904 1.010078  1.975528E-5 
465 -8.2784 1.027221  5.360460E-5 
466 -0.8254 1.036433  7.207399E-5 
467 1.2767 1.004528  8.998044E-6 
468 16.7178 0.993742 -1.249254E-5 
469 -0.0228 1.009276  1.860135E-5 
470 15.3800 1.010903  2.196466E-5 
471 -8.1637 1.014650  2.964599E-5 
472 -8.3548 1.004997  1.015768E-5 
473 18.5906 0.994615 -1.099521E-5 
474 2.6144 1.013312  2.730455E-5 
475 2.5762 0.990877 -1.879687E-5 
476 -0.4050 1.033726  6.979713E-5 
477 1.0092 0.996297 -7.698630E-6 
478 2.0793 1.015685  3.275288E-5 
479 16.6031 1.030909  6.483033E-5 
480 -8.8135 1.013530  2.850481E-5 
481 -10.1894 0.999620 -8.047094E-7 
482 1.3531 1.012164  2.585584E-5 
483 -18.3304 0.986227 -2.940435E-5 
484 5.7103 1.003350  7.184320E-6 
485 -11.9476 0.991694 -1.789048E-5 
486 16.3355 0.999405 -1.287567E-6 
487 1.8882 1.017643  3.833621E-5 
488 16.2209 1.005228  1.141072E-5 
489 -7.9344 1.017342  3.801306E-5 
490 -10.8392 1.025092  5.524187E-5 
491 0.3976 1.001440  3.184511E-6 
492 -9.9601 1.012935  2.872652E-5 
493 -10.0365 1.014473  3.228267E-5 
494 18.3612 1.011831  2.650387E-5 
495 2.2322 1.020596  4.633938E-5 
496 -19.9356 1.018467  4.172949E-5 
497 -12.4062 1.018646  4.231724E-5 
498 18.5141 1.014495  3.303890E-5 
499 1.9647 1.017497  4.005153E-5 
500 16.5266 1.019527  4.489268E-5 
501 18.2083 1.014347  3.312512E-5 
502 17.8261 1.003865  8.962276E-6 
503 -9.5397 1.035734  8.321123E-5 
504 -9.3104 1.023496  5.494807E-5 
505 6.7040 0.996851 -7.395222E-6 
506 5.1752 1.013666  3.223199E-5 
507 1.7736 1.033693  7.980644E-5 
508 -10.0748 1.014934  3.552358E-5 
509 -7.9344 1.011895  2.841428E-5 
510 0.6652 1.007184  1.723281E-5 
511 1.9264 1.006278  1.512296E-5 
512 15.8387 1.010071  2.436433E-5 
513 -9.0810 0.995485 -1.096904E-5 
514 16.2591 1.033691  8.219098E-5 
515 -9.0046 1.013346  3.269533E-5 
516 17.7497 1.021257  5.229254E-5 
517 -11.6036 1.018907  4.670752E-5 
518 -9.3104 1.010756  2.668153E-5 
519 -5.2590 1.022669  5.646870E-5 
520 16.6795 1.022482  5.623657E-5 
521 -1.0930 1.040178  1.009163E-4 
522 -11.7947 1.011328  2.857005E-5 
523 -17.8717 0.987895 -3.065743E-5 
524 1.6589 1.012317  3.132448E-5 
525 3.4935 1.014504  3.703784E-5 
526 -9.5397 1.029272  7.505576E-5 
527 15.1507 1.014283  3.677502E-5 
528 -9.1575 1.006821  1.763290E-5 
529 15.8769 1.027442  7.123619E-5 
530 -10.0365 1.030181  7.866693E-5 
531 16.2591 0.993325 -1.746923E-5 
532 -10.2276 1.002613  6.866239E-6 
533 17.4822 1.020918  5.519360E-5 
534 18.9728 1.001943  5.147737E-6 
535 0.7798 0.975847 -6.424623E-5 
536 18.4377 0.989680 -2.756356E-5 
537 -1.2841 1.007423  1.990695E-5 
538 -1.8574 1.024191  6.513276E-5 
539 2.3469 1.017733  4.793889E-5 
540 -10.6863 1.000945  2.565033E-6 
541 -8.3931 1.008370  2.280829E-5 
542 -10.8774 1.009093  2.487833E-5 
543 -0.2521 1.000229  6.291456E-7 
544 -19.9739 1.013588  3.747668E-5 
545 0.5887 1.005984  1.657144E-5 
546 3.3788 0.993860 -1.706889E-5 
547 0.5505 1.019163  5.348705E-5 
548 18.2466 1.008169  2.289105E-5 
549 -8.5842 1.013332  3.751033E-5 
550 -9.7690 1.010895  3.077559E-5 
551 15.8769 1.013687  3.881419E-5 
552 -11.4125 1.009901  2.818943E-5 
553 -8.2020 1.016305  4.660341E-5 
554 17.4822 0.982214 -5.103726E-5 
555 -9.4250 1.011323  3.262005E-5 
 3.969147  90.00  10.00 -0.00 0.09
  0 0.0536 0.878062 -6.865685E-6 
  1 -0.7872 0.871575 -7.235803E-6 
  2 2.0029 1.106920  6.029731E-6 
  3 1.1238 1.075632  4.270314E-6 
  4 0.8181 1.090955  5.142911E-6 
  5 0.4741 1.111092  6.292164E-6 
  6 0.5505 1.097928  5.557355E-6 
  7 0.1683 1.098192  5.584619E-6 
  8 0.3594 1.071659  4.085606E-6 
  9 -0.0610 1.094747  5.416550E-6 
 10 -0.0228 1.071985  4.127452E-6 
 11 -0.1757 1.097967  5.635235E-6 
 12 -0.3286 1.066233  3.822961E-6 
 13 -0.2521 1.045543  2.638457E-6 
 14 -1.0547 1.070024  4.072641E-6 
 15 -0.4050 1.038025  2.220789E-6 
 16 -1.7427 1.042060  2.467258E-6 
 17 -1.6281 1.018251  1.075548E-6 
 18 -1.5134 1.020051  1.187428E-6 
 19 3.8375 1.015892  9.459130E-7 
 20 -4.0359 1.026439  1.582062E-6 
 21 -0.0610 1.031796  1.913142E-6 
 22 10.6407 1.000410  2.483606E-8 
 23 1.2767 1.020112  1.224354E-6 
 24 -11.3743 1.018782  1.150448E-6 
 25 -0.1375 1.015466  9.533604E-7 
 26 -11.7182 1.008350  5.181220E-7 
 27 1.5442 1.000639  3.990574E-8 
 28 -1.4752 0.997283 -1.709131E-7 
 29 2.0411 1.003219  2.039208E-7 
 30 1.6589 1.011101  7.085054E-7 
 31 5.5574 1.021492  1.382017E-6 
 32 0.6270 1.016366  1.060467E-6 
 33 3.2642 1.000245  1.599600E-8 
 34 14.0805 1.007640  5.029899E-7 
 35 -18.6361 0.999173 -5.488316E-8 
 36 10.9847 1.019334  1.294109E-6 
 37 18.7434 1.006944  4.687827E-7 
 38 10.0292 1.018598  1.266353E-6 
 39 0.3594 1.015720  1.079830E-6 
 40 -5.3354 1.005106  3.538897E-7 
 41 7.4302 1.011842  8.282327E-7 
 42 -16.0754 1.021872  1.543960E-6 
 43 -12.7884 0.996462 -2.520947E-7 
 44 0.3212 1.017550  1.262381E-6 
 45 -0.7490 1.007952  5.774744E-7 
 46 3.5317 1.013106  9.610643E-7 
 47 -9.5397 0.987786 -9.044957E-7 
 48 -10.0365 1.024607  1.840510E-6 
 49 8.0417 1.011979  9.049987E-7 
 50 1.4296 0.996587 -2.604906E-7 
 51 1.5060 0.997687 -1.783809E-7 
 52 15.3036 1.011853  9.233984E-7 
 53 14.1570 1.018865  1.485085E-6 
 54 2.6526 1.023903  1.901574E-6 
 55 4.3343 1.016954  1.363136E-6 
 56 6.9715 1.010641  8.647569E-7 
 57 15.8005 1.002373  1.949531E-7 
 58 -19.6299 0.983093 -1.403905E-6 
 59 -10.9921 1.005224  4.385172E-7 
 60 6.2454 1.011560  9.811164E-7 
 61 1.0474 0.999977 -1.942282E-9 
 62 -0.3286 1.023436  2.033470E-6 
 63 -10.3423 1.011322  9.933920E-7 
 64 1.2385 1.003821  3.390600E-7 
 65 2.1558 1.016064  1.441408E-6 
 66 9.9145 1.029736  2.698392E-6 
 67 5.8632 1.006095  5.593976E-7 
 68 15.9533 1.016970  1.575358E-6 
 69 0.5123 1.027146  2.548879E-6 
 70 2.1940 1.010848  1.030311E-6 
 71 14.1570 1.015316  1.471467E-6 
 72 -15.1199 1.014587  1.417711E-6 
 73 4.5637 0.974129 -2.543592E-6 
 74 1.5825 1.012693  1.262509E-6 
 75 -16.4576 1.007467  7.513744E-7 
 76 0.5505 0.996911 -3.144559E-7 
 77 12.9339 1.004348  4.478012E-7 
 78 0.0919 1.030664  3.195225E-6 
 79 -16.9927 1.014276  1.505006E-6 
 80 -0.9019 1.005968  6.366049E-7 
 81 11.8255 0.993034 -7.517670E-7 
 82 2.5762 1.006811  7.437245E-7 
 83 1.1620 1.031682  3.500308E-6 
 84 -10.4570 1.031007  3.466195E-6 
 85 9.1883 1.012731  1.439934E-6 
 86 1.5825 1.018619  2.130891E-6 
 87 5.9778 1.005072  5.873257E-7 
 88 -14.2790 1.009113  1.067729E-6 
 89 -1.7427 1.012626  1.496788E-6 
 90 -14.5848 1.006800  8.156166E-7 
 91 -11.5654 1.010239  1.242701E-6 
 92 -17.0691 1.000414  5.086683E-8 
 93 0.8563 1.034080  4.234507E-6 
 94 16.7178 0.998818 -1.486147E-7 
 95 -18.7126 1.024831  3.158497E-6 
 96 -1.8574 0.986989 -1.674437E-6 
 97 1.2767 1.022275  2.900500E-6 
 98 9.9910 1.019439  2.561001E-6 
 99 1.4296 0.980926 -2.542376E-6 
100 13.3926 1.009349  1.260688E-6 
101 11.9402 1.006454  8.806026E-7 
102 10.6407 1.030477  4.206771E-6 
103 11.2522 1.004656  6.501640E-7 
104 -0.0610 1.039420  5.568874E-6 
105 9.4941 1.005456  7.797167E-7 
106 -1.0547 1.002638  3.813925E-7 
107 10.7554 0.990903 -1.330451E-6 
108 15.8387 1.008440  1.248725E-6 
109 8.7679 1.017089  2.557539E-6 
110 11.0993 0.994025 -9.046193E-7 
111 10.1438 1.007581  1.160876E-6 
112 -10.9921 1.013336  2.065718E-6 
113 -17.6424 1.018902  2.961387E-6 
114 13.5455 1.001604  2.541053E-7 
115 7.8506 1.020890  3.348287E-6 
116 11.2905 1.007268  1.178249E-6 
117 2.4998 1.007307  1.197923E-6 
118 -0.7108 1.004711  7.810622E-7 
119 11.6344 1.000224  3.756417E-8 
120 -11.8711 1.022038  3.737226E-6 
121 -11.4125 1.013928  2.388675E-6 
122 11.5198 1.030785  5.338792E-6 
123 2.3087 1.027857  4.885252E-6 
124 1.3149 1.012530  2.221868E-6 
125 11.0229 1.006614  1.185858E-6 
126 2.7673 0.998518 -2.686068E-7 
127 6.3218 0.992152 -1.438589E-6 
128 8.6915 1.009067  1.680452E-6 
129 -13.5910 1.001504  2.818373E-7 
130 11.2905 1.014702  2.785396E-6 
131 12.0549 1.032271  6.180959E-6 
132 -0.0992 0.991344 -1.676155E-6 
133 11.2905 1.000662  1.296255E-7 
134 8.3475 1.015842  3.134708E-6 
135 10.9082 1.012078  2.415909E-6 
136 9.6470 1.002606  5.269378E-7 
137 -11.6418 1.031375  6.412134E-6 
138 0.8563 1.013047  2.695081E-6 
139 17.4439 1.011151  2.328064E-6 
140 10.2967 0.997995 -4.229999E-7 
141 2.4998 0.999137 -1.839860E-7 
142 10.1821 1.011407  2.458636E-6 
143 1.9264 0.985467 -3.165702E-6 
144 1.6971 1.006637  1.460852E-6 
145 0.2830 1.002442  5.431860E-7 
146 -18.2539 0.991206 -1.976609E-6 
147 1.7736 0.999293 -1.606413E-7 
148 11.8255 1.011331  2.600543E-6 
149 11.2522 1.015433  3.578700E-6 
150 12.6282 1.029602  6.935787E-6 
151 11.5962 1.006669  1.578620E-6 
152 10.4496 0.981907 -4.327134E-6 
153 0.2830 1.014936  3.608829E-6 
154 -0.7872 1.020952  5.114205E-6 
155 8.8061 0.990866 -2.252223E-6 
156 -13.7439 1.027693  6.898254E-6 
157 8.9208 1.013684  3.443322E-6 
158 10.1438 0.998531 -3.732938E-7 
159 10.8318 1.007630  1.959002E-6 
160 1.7736 1.007754  2.010679E-6 
161 1.6589 0.991910 -2.118823E-6 
162 0.6652 0.998862 -3.009137E-7 
163 5.4427 1.023942  6.396423E-6 
164 -15.8461 1.021238  5.730305E-6 
165 -1.3987 0.984577 -4.202520E-6 
166 10.8700 1.003568  9.816705E-7 
167 4.4872 1.025158  6.990635E-6 
168 -15.2345 1.010363  2.907644E-6 
169 10.7936 1.021562  6.109197E-6 
170 0.5123 0.999893 -3.068358E-8 
171 3.1113 1.011127  3.214201E-6 
172 11.4051 1.003659  1.067068E-6 
173 6.6276 0.995864 -1.217980E-6 
174 -17.1838 1.022125  6.577491E-6 
175 3.6464 1.006750  2.025835E-6 
176 1.4296 1.026860  8.138794E-6 
177 11.5198 1.017786  5.440436E-6 
178 12.4371 0.996807 -9.859561E-7 
179 0.8945 1.016739  5.217524E-6 
180 13.4308 1.006721  2.114576E-6 
181 14.0423 1.005050  1.603810E-6 
182 4.6019 1.011099  3.557842E-6 
183 0.0154 1.015520  5.021488E-6 
184 -0.9783 0.996875 -1.020534E-6 
185 11.5198 0.988887 -3.662743E-6 
186 12.0931 1.003422  1.138270E-6 
187 6.2454 0.996158 -1.289795E-6 
188 14.2716 1.035877  1.215420E-5 
189 -9.9219 1.008623  2.948080E-6 
190 2.4615 1.012546  4.328282E-6 
191 -19.7828 0.999711 -1.005259E-7 
192 1.8882 0.979533 -7.189621E-6 
193 18.1701 1.005309  1.881622E-6 
194 3.2642 0.997208 -9.984949E-7 
195 4.4108 1.034539  1.246311E-5 
196 9.7234 1.005610  2.042507E-6 
197 -0.3286 0.999941 -2.179173E-8 
198 15.9916 1.010058  3.727358E-6 
199 -0.4050 1.008830  3.301068E-6 
200 1.5825 0.997955 -7.712177E-7 
201 2.0793 0.993351 -2.529764E-6 
202 12.4753 1.013678  5.249793E-6 
203 9.4941 1.026945  1.043217E-5 
204 17.3675 0.988806 -4.371582E-6 
205 1.2385 1.019034  7.497809E-6 
206 -14.4701 1.010764  4.276735E-6 
207 -11.3360 1.008394  3.363906E-6 
208 14.0041 1.000955  3.861954E-7 
209 0.8563 1.005064  2.064615E-6 
210 0.4741 1.029616  1.217686E-5 
211 13.5837 0.998280 -7.133827E-7 
212 -10.3423 1.034076  1.424981E-5 
213 3.4553 1.005498  2.318612E-6 
214 -1.1694 0.998559 -6.126421E-7 
215 -15.8843 1.000095  4.062000E-8 
216 7.9653 0.999303 -3.012324E-7 
217 10.8318 1.001553  6.774209E-7 
218 1.1620 1.031082  1.366696E-5 
219 1.0856 1.030768  1.364104E-5 
220 -1.8956 1.008797  3.932403E-6 
221 2.6526 0.982012 -8.107410E-6 
222 9.6852 1.020026  9.100212E-6 
223 9.6470 1.034119  1.563191E-5 
224 3.9903 1.017214  7.951239E-6 
225 9.6088 0.981018 -8.839408E-6 
226 -11.5271 1.001739  8.163879E-7 
227 3.4553 0.993358 -3.143327E-6 
228 -12.2916 0.994674 -2.540926E-6 
229 -0.0610 1.011428  5.495972E-6 
230 1.7736 1.011277  5.466958E-6 
231 -11.5271 0.989906 -4.932699E-6 
232 4.6783 1.025367  1.249455E-5 
233 10.3349 1.023424  1.162939E-5 
234 -12.5973 1.017611  8.812900E-6 
235 4.4490 1.017632  8.892938E-6 
236 9.9910 0.978855 -1.074893E-5 
237 1.0092 0.996576 -1.754074E-6 
238 12.7810 1.006804  3.512962E-6 
239 9.3030 1.017932  9.331612E-6 
240 0.8945 1.003839  2.013312E-6 
241 11.0611 0.979126 -1.103181E-5 
242 -0.7108 1.004841  2.578039E-6 
243 -13.4382 1.013338  7.158578E-6 
244 1.8882 0.989087 -5.901967E-6 
245 -10.9921 1.013850  7.547739E-6 
246 -19.8210 1.010651  5.849061E-6 
247 1.4678 1.006938  3.838804E-6 
248 18.6670 1.010887  6.070117E-6 
249 -12.7120 1.002333  1.310780E-6 
250 14.2334 1.016397  9.281124E-6 
251 1.8500 1.007065  4.029022E-6 
252 -12.1387 1.012311  7.073471E-6 
253 -11.4507 0.999306 -4.017582E-7 
254 10.4496 1.019626  1.144532E-5 
255 1.6589 1.013028  7.654582E-6 
256 -11.4507 1.000404  2.388810E-7 
257 -11.0685 0.994719 -3.148982E-6 
258 9.6470 1.021503  1.291636E-5 
259 16.6795 0.999729 -1.642463E-7 
260 19.1256 1.000771  4.697294E-7 
261 8.8061 1.011641  7.147647E-6 
262 2.9966 1.012040  7.446196E-6 
263 8.8061 1.010658  6.639673E-6 
264 1.5060 1.025558  1.603775E-5 
265 0.0919 1.009853  6.227333E-6 
266 11.2140 1.002981  1.897863E-6 
267 -19.0183 1.012661  8.117782E-6 
268 -6.5967 0.997740 -1.459657E-6 
269 -12.1387 1.011364  7.390811E-6 
270 -11.0303 1.015024  9.841559E-6 
271 1.2003 0.997570 -1.603142E-6 
272 -10.3805 1.003985  2.647729E-6 
273 -13.7057 1.003692  2.470307E-6 
274 -12.3680 1.001293  8.712456E-7 
275 -18.9419 1.023536  1.597005E-5 
276 4.1815 1.001845  1.260866E-6 
277 1.3914 1.009908  6.817117E-6 
278 -2.0867 1.021632  1.498780E-5 
279 10.0674 1.005889  4.108890E-6 
280 -12.5591 1.014581  1.024380E-5 
281 12.3224 1.026478  1.872993E-5 
282 4.0668 1.003420  2.435595E-6 
283 1.8882 1.011835  8.487338E-6 
284 -10.3805 0.996883 -2.250522E-6 
285 -15.8843 1.002765  2.010505E-6 
286 10.6025 0.994516 -4.014249E-6 
287 0.2830 1.000169  1.243280E-7 
288 -14.6994 1.001609  1.193887E-6 
289 -18.7890 1.007306  5.457686E-6 
290 1.3149 1.001535  1.154672E-6 
291 2.7291 1.005153  3.901415E-6 
292 12.8193 1.033520  2.554783E-5 
293 10.0292 1.021036  1.614076E-5 
294 -17.3749 1.016169  1.248906E-5 
295 0.8945 0.985777 -1.105906E-5 
296 8.5768 1.024901  1.949050E-5 
297 16.6795 1.009837  7.750689E-6 
298 -10.0748 1.004355  3.453606E-6 
299 -0.6343 1.002717  2.169096E-6 
300 -7.8962 1.025842  2.076587E-5 
301 -11.6418 1.014840  1.200350E-5 
302 4.7930 1.003993  3.250827E-6 
303 -9.1193 0.989583 -8.536310E-6 
304 -15.2345 1.016269  1.341781E-5 
305 0.6652 1.019134  1.588382E-5 
306 -6.2145 1.029446  2.460141E-5 
307 3.8757 1.018013  1.514700E-5 
308 2.0029 0.995482 -3.823153E-6 
309 -1.1694 1.026915  2.292422E-5 
310 11.5962 1.020061  1.719592E-5 
311 9.4941 0.996821 -2.742684E-6 
312 2.2322 1.000578  5.014195E-7 
313 2.6526 1.013450  1.175055E-5 
314 16.8324 1.021389  1.880538E-5 
315 0.8181 1.028331  2.506588E-5 
316 -15.5403 1.005525  4.919105E-6 
317 3.7992 0.983858 -1.446184E-5 
318 -0.6343 1.008699  7.842905E-6 
319 1.3914 1.022366  2.029091E-5 
320 4.7165 0.992069 -7.240022E-6 
321 10.8318 1.023888  2.194192E-5 
322 11.8255 0.996216 -3.497682E-6 
323 4.8312 1.003300  3.068490E-6 
324 16.6413 1.000994  9.301789E-7 
325 2.2704 1.022775  2.144269E-5 
326 -11.4507 0.994661 -5.057972E-6 
327 -10.4570 1.015747  1.500847E-5 
328 -19.8974 1.003511  3.367177E-6 
329 -11.1832 1.030402  2.933095E-5 
330 10.4114 1.008308  8.064616E-6 
331 13.3544 1.009659  9.433026E-6 
332 1.8882 1.031091  3.054639E-5 
333 -13.0177 1.000139  1.376591E-7 
334 -7.7815 1.010915  1.085360E-5 
335 10.4496 0.999037 -9.635068E-7 
336 11.1758 1.006814  6.857012E-6 
337 6.4365 1.001580  1.599513E-6 
338 -11.7182 1.006334  6.450328E-6 
339 4.7548 0.993286 -6.878692E-6 
340 2.2704 1.009663  9.958496E-6 
341 -3.0040 1.013317  1.380554E-5 
342 11.8255 1.004691  4.891724E-6 
343 -1.5898 1.011846  1.242622E-5 
344 -13.7057 1.022250  2.347755E-5 
345 2.5762 1.011392  1.209118E-5 
346 -11.3360 1.003950  4.216555E-6 
347 2.1175 1.014323  1.538032E-5 
348 13.1250 1.007172  7.746772E-6 
349 9.5323 1.040483  4.397860E-5 
350 13.5072 1.024229  2.647466E-5 
351 9.0737 1.013614  1.496163E-5 
352 10.5643 0.997648 -2.599419E-6 
353 -14.9288 1.012740  1.416292E-5 
354 14.1188 1.014855  1.660965E-5 
355 12.4371 1.018263  2.053664E-5 
356 0.5123 1.028789  3.255932E-5 
357 -13.4382 1.017258  1.962947E-5 
358 10.9465 1.003543  4.052336E-6 
359 -11.6800 1.007498  8.626030E-6 
360 3.9521 0.999027 -1.125623E-6 
361 9.5323 1.032317  3.759932E-5 
362 -0.6343 1.015453  1.808016E-5 
363 -17.1838 1.015893  1.870061E-5 
364 11.5962 1.008889  1.051777E-5 
365 3.3024 1.006780  8.067327E-6 
366 -10.1894 1.010505  1.257004E-5 
367 4.2579 1.009956  1.197932E-5 
368 10.9465 1.021792  2.636649E-5 
369 2.7291 1.007869  9.573501E-6 
370 10.2967 0.984488 -1.897705E-5 
371 2.6526 1.015518  1.908972E-5 
372 2.3087 0.997272 -3.374641E-6 
373 2.4233 0.988446 -1.437063E-5 
374 -11.2214 1.019314  2.415434E-5 
375 10.4114 0.987966 -1.513260E-5 
376 -10.4570 0.998541 -1.845190E-6 
377 -11.8329 1.015486  1.968604E-5 
378 2.6909 0.996386 -4.619521E-6 
379 -15.1581 1.017270  2.219369E-5 
380 2.7673 1.002104  2.718361E-6 
381 1.5442 1.011829  1.536669E-5 
382 -0.0610 1.006151  8.033352E-6 
383 -12.2916 0.994424 -7.322167E-6 
384 14.0423 1.005442  7.184901E-6 
385 10.1821 1.003772  5.006924E-6 
386 -10.0365 1.016357  2.182630E-5 
387 -12.9031 1.001393  1.868325E-6 
388 15.5329 1.019643  2.649151E-5 
389 1.8882 1.028992  3.930677E-5 
390 1.0856 1.012014  1.637565E-5 
391 17.4439 1.029755  4.077101E-5 
392 8.0035 1.010169  1.400728E-5 
393 0.5505 1.020734  2.871142E-5 
394 2.8820 1.012269  1.707828E-5 
395 17.1382 1.007877  1.102258E-5 
396 9.4559 1.020611  2.899252E-5 
397 2.4998 1.020741  2.932785E-5 
398 -1.5898 1.015886  2.257965E-5 
399 14.9978 1.002826  4.038233E-6 
400 11.6727 1.014590  2.095392E-5 
401 18.3612 0.996373 -5.235482E-6 
402 9.9910 1.027347  3.968335E-5 
403 1.2003 1.013422  1.957706E-5 
404 10.7171 1.015783  2.313942E-5 
405 6.7804 1.007899  1.164042E-5 
406 8.7297 0.975184 -3.675802E-5 
407 1.6207 1.007355  1.095074E-5 
408 1.0856 1.032606  4.879203E-5 
409 6.7422 0.996575 -5.150713E-6 
410 11.8638 1.021400  3.235106E-5 
411 3.7610 1.014776  2.244996E-5 
412 1.8500 0.984721 -2.333183E-5 
413 1.3531 1.013726  2.106741E-5 
414 -10.6863 1.000399  6.154085E-7 
415 10.0674 1.001567  2.429051E-6 
416 8.3857 1.018989  2.958749E-5 
417 5.2134 1.027458  4.299720E-5 
418 16.0298 0.991548 -1.330095E-5 
419 1.5442 1.029776  4.709571E-5 
420 15.5711 1.016483  2.620049E-5 
421 9.7616 1.027133  4.334386E-5 
422 -13.6293 1.002989  4.797848E-6 
423 -0.2139 1.007071  1.140763E-5 
424 0.2065 1.012707  2.060274E-5 
425 1.5442 1.024481  3.988731E-5 
426 -8.6988 1.002816  4.610884E-6 
427 2.8437 0.992682 -1.204063E-5 
428 8.0799 1.003671  6.070213E-6 
429 5.4045 0.992014 -1.326947E-5 
430 10.1438 1.008731  1.457813E-5 
431 8.6915 1.010976  1.841623E-5 
432 -0.2903 1.011162  1.881931E-5 
433 -12.6738 0.996940 -5.183654E-6 
434 -11.5654 1.039606  6.742861E-5 
435 8.1182 1.012834  2.195441E-5 
436 -15.7696 1.013069  2.246452E-5 
437 12.9339 1.017406  3.006514E-5 
438 -1.5516 1.007036  1.221230E-5 
439 2.9202 1.014121  2.462536E-5 
440 11.4433 1.017596  3.083373E-5 
441 12.7046 1.006272  1.104368E-5 
442 3.7228 0.995244 -8.414502E-6 
443 10.9847 1.025148  4.470123E-5 
444 -13.3617 1.009931  1.773665E-5 
445 8.0799 1.006099  1.094389E-5 
446 0.4358 1.033022  5.953779E-5 
447 6.8951 1.019202  3.478394E-5 
448 0.3212 1.013121  2.388026E-5 
449 1.0856 1.002632  4.812829E-6 
450 -5.7941 1.002112  3.879983E-6 
451 0.3212 1.008902  1.643162E-5 
452 -11.1832 0.999366 -1.176452E-6 
453 1.6971 1.008318  1.549783E-5 
454 8.4239 1.001231  2.304886E-6 
455 0.3594 1.024495  4.606545E-5 
456 1.6971 1.003475  6.564669E-6 
457 7.0480 1.004791  9.094875E-6 
458 -0.3668 0.992947 -1.345014E-5 
459 -9.9601 0.999626 -7.167609E-7 
460 4.2579 1.005041  9.702403E-6 
461 13.6983 1.001234  2.385829E-6 
462 10.4496 0.995968 -7.832604E-6 
463 17.5586 1.023186  4.524249E-5 
464 2.7673 1.022424  4.395724E-5 
465 0.6270 0.999441 -1.101659E-6 
466 -0.3286 1.010100  1.998095E-5 
467 -0.0992 1.008369  1.663121E-5 
468 -10.3041 1.011679  2.331466E-5 
469 2.2322 1.002886  5.786605E-6 
470 5.3281 0.991813 -1.649154E-5 
471 9.5705 1.011921  2.412402E-5 
472 0.3594 1.019511  3.966015E-5 
473 -10.1512 0.995607 -8.969356E-6 
474 9.7616 1.007370  1.511716E-5 
475 10.4496 1.000891  1.834857E-6 
476 3.4170 1.035055  7.254792E-5 
477 -14.0879 1.008954  1.861283E-5 
478 5.3281 1.004261  8.898202E-6 
479 -0.2521 1.025498  5.347983E-5 
480 6.5893 1.003532  7.440838E-6 
481 -19.5534 0.998642 -2.874758E-6 
482 10.4496 1.001166  2.477466E-6 
483 11.2905 0.994242 -1.229271E-5 
484 1.6589 1.017612  3.776736E-5 
485 17.2146 1.026030  5.606506E-5 
486 -7.0554 1.012538  2.712487E-5 
487 2.6144 1.015077  3.275972E-5 
488 12.5899 1.023141  5.050413E-5 
489 9.8763 0.985526 -3.172709E-5 
490 1.5825 1.042912  9.447501E-5 
491 10.4496 1.005018  1.109677E-5 
492 -1.5516 1.008175  1.815527E-5 
493 -18.2539 1.010435  2.327596E-5 
494 8.9208 1.017863  4.001801E-5 
495 4.7165 0.998549 -3.265717E-6 
496 -3.1569 1.006290  1.421250E-5 
497 9.2648 0.999346 -1.484430E-6 
498 8.9208 1.004028  9.181171E-6 
499 -11.1067 0.995109 -1.119594E-5 
500 12.0549 0.996262 -8.594306E-6 
501 1.9264 0.996419 -8.268477E-6 
502 0.0536 1.023377  5.420393E-5 
503 3.2642 1.015341  3.572439E-5 
504 16.9471 1.030276  7.080299E-5 
505 3.5699 1.017639  4.142633E-5 
506 8.3857 1.000278  6.547994E-7 
507 6.2454 1.021182  5.017283E-5 
508 0.3212 1.014385  3.421771E-5 
509 -14.6230 0.970892 -6.953108E-5 
510 11.5962 1.005853  1.404097E-5 
511 -18.2922 0.978431 -5.195946E-5 
512 10.1438 1.007780  1.882156E-5 
513 0.8945 1.003309  8.038702E-6 
514 1.1238 1.020335  4.960923E-5 
515 4.1050 1.015559  3.811535E-5 
516 1.2385 1.000160  3.946813E-7 
517 9.9145 1.021168  5.229309E-5 
518 15.8005 0.999345 -1.625331E-6 
519 12.8957 1.010538  2.625072E-5 
520 -11.7182 1.015575  3.895936E-5 
521 0.4358 1.003600  9.041826E-6 
522 2.7291 0.998968 -2.603061E-6 
523 10.0674 0.993684 -1.599535E-5 
524 -16.6105 0.990046 -2.531266E-5 
525 1.8118 1.023143  5.909710E-5 
526 -5.2208 1.011991  3.074677E-5 
527 3.9139 1.009887  2.545653E-5 
528 11.7491 0.996058 -1.019060E-5 
529 0.1301 1.037911  9.840997E-5 
530 11.3669 1.005564  1.450361E-5 
531 -8.7371 0.990841 -2.397126E-5 
532 3.4170 1.037045  9.734635E-5 
533 -11.8711 0.996886 -8.215192E-6 
534 -9.2339 1.018624  4.933948E-5 
535 -0.7872 1.018023  4.794070E-5 
536 -8.2020 0.992416 -2.025538E-5 
537 -1.5898 0.991485 -2.283451E-5 
538 0.6652 1.017181  4.625890E-5 
539 17.2528 1.021153  5.718453E-5 
540 11.1376 1.033524  9.099080E-5 
541 -0.4050 1.016749  4.564380E-5 
542 2.5762 1.010945  2.994614E-5 
543 -3.1187 1.018366  5.045167E-5 
544 9.1883 0.998800 -3.308566E-6 
545 15.9916 1.006337  1.754874E-5 
546 -11.1067 1.014216  3.952319E-5 
547 10.5643 1.016780  4.683712E-5 
548 -1.1312 1.024786  6.945785E-5 
549 5.7103 0.989486 -2.958133E-5 
550 -7.0554 0.997993 -5.669058E-6 
551 -12.2533 0.983106 -4.790935E-5 
552 -13.5146 1.006326  1.801166E-5 
553 -10.4188 1.012905  3.688742E-5 
554 -8.6224 1.014964  4.293873E-5 
555 -5.8323 1.033875  9.758816E-5 
