Filename:	Wind_Profile_100_20181024_025308.hpl
System ID:	100
Number of gates:	556
Range gate length (m):	18.0
Gate length (pts):	6
Pulses/ray:	1500
No. of rays in file:	3
Scan type:	Wind profile
Focus range:	65535
Start time:	20181024 02:53:14.91
Resolution (m/s):	0.0382
Altitude of measurement (center of gate) = (range gate + 0.5) * Gate length
Data line 1: Decimal time (hours)  Azimuth (degrees)  Elevation (degrees) Pitch (degrees) Roll (degrees)
f9.6,1x,f6.2,1x,f6.2
Data line 2: Range Gate  Doppler (m/s)  Intensity (SNR + 1)  Beta (m-1 sr-1)
i3,1x,f6.4,1x,f8.6,1x,e12.6 - repeat for no. gates
****
 2.887447  91.00  90.00 -0.00 0.09
  0 -0.0228 0.919852 -4.512718E-6
  1 -1.2458 0.904697 -5.369626E-6
  2 -7.8580 1.056739  3.199803E-6
  3 0.5505 1.006273  3.541600E-7
  4 0.9327 1.019110  1.080559E-6
  5 -0.0228 1.013264  7.512563E-7
  6 -0.9783 1.040155  2.278781E-6
  7 -7.1700 1.016171  9.197458E-7
  8 1.0092 1.028762  1.639826E-6
  9 2.0793 1.037020  2.116364E-6
 10 1.0092 1.032903  1.886572E-6
 11 5.9014 1.031584  1.816775E-6
 12 0.8563 1.007540  4.352146E-7
 13 0.4741 1.033497  1.940581E-6
 14 0.2065 1.033216  1.931847E-6
 15 -0.0610 1.028053  1.638413E-6
 16 1.2385 1.031352  1.839148E-6
 17 -0.2903 1.037479  2.208739E-6
 18 -1.2076 1.032144  1.903548E-6
 19 1.1238 1.038976  2.319890E-6
 20 -0.2139 1.025371  1.518129E-6
 21 -1.1312 1.017617  1.059991E-6
 22 -0.2521 1.007903  4.782258E-7
 23 6.3218 1.021102  1.284622E-6
 24 0.1683 1.034473  2.111515E-6
 25 -0.0610 1.033085  2.039486E-6
 26 0.7034 1.002030  1.259890E-7
 27 0.5505 1.026256  1.640208E-6
 28 2.4998 1.005960  3.749342E-7
 29 0.5123 0.998010 -1.260832E-7
 30 2.0411 1.033829  2.159028E-6
 31 -7.4758 0.996738 -2.097745E-7
 32 -19.8210 1.031241  2.024379E-6
 33 -2.0103 1.018220  1.189914E-6
 34 1.3149 1.009074  5.974095E-7
 35 17.2911 1.016260  1.079286E-6
 36 2.5380 1.013272  8.883666E-7
 37 2.0793 1.008497  5.735617E-7
 38 -1.2841 1.022038  1.500569E-6
 39 0.8181 1.007053  4.844702E-7
 40 -0.8636 0.999272 -5.046516E-8
 41 1.6207 0.999759 -1.686412E-8
 42 0.8181 1.022646  1.598545E-6
 43 1.3531 1.017597  1.253795E-6
 44 -0.0228 1.032770  2.357155E-6
 45 -10.4570 1.023151  1.681294E-6
 46 -8.2020 1.047051  3.450347E-6
 47 0.7416 1.034922  2.586132E-6
 48 -0.0610 1.043996  3.290679E-6
 49 0.8181 1.032832  2.480405E-6
 50 0.3212 1.041136  3.139438E-6
 51 -1.4370 1.028152  2.170641E-6
 52 -0.7490 1.039970  3.113910E-6
 53 0.1683 0.996170 -3.015316E-7
 54 -9.1193 1.005387  4.285790E-7
 55 11.9402 0.997032 -2.386142E-7
 56 -10.5334 1.023117  1.878586E-6
 57 17.1000 1.014896  1.223565E-6
 58 2.0029 1.024376  2.024081E-6
 59 0.0919 1.015624  1.311528E-6
 60 17.9408 1.011769  9.988313E-7
 61 18.9728 0.993151 -5.877122E-7
 62 17.1000 1.034719  3.012462E-6
 63 0.2065 1.010374  9.101655E-7
 64 1.7736 0.999807 -1.716697E-8
 65 4.7548 1.004318  3.874578E-7
 66 -19.8592 1.020665  1.875294E-6
 67 1.8882 1.008870  8.141138E-7
 68 2.1175 1.007890  7.324393E-7
 69 -9.1957 1.022307  2.094544E-6
 70 -0.0992 1.005994  5.692564E-7
 71 18.2083 0.986150 -1.330697E-6
 72 10.4114 1.019579  1.902894E-6
 73 -7.9726 1.007121  7.001235E-7
 74 6.0160 1.006500  6.464973E-7
 75 -8.5077 1.008783  8.837364E-7
 76 1.3914 0.999756 -2.485742E-8
 77 -18.7126 1.010086  1.038781E-6
 78 3.9139 1.020796  2.166990E-6
 79 10.2967 1.028323  2.985971E-6
 80 -8.6606 1.021936  2.339801E-6
 81 4.4872 1.025979  2.803704E-6
 82 6.2071 1.004581  5.001919E-7
 83 15.8387 1.006096  6.735441E-7
 84 -1.3605 1.011747  1.313137E-6
 85 -8.6606 1.021712  2.455764E-6
 86 6.7040 0.991975 -9.183786E-7
 87 10.1821 1.021564  2.496989E-6
 88 16.9853 1.022721  2.662071E-6
 89 8.6532 1.010695  1.267909E-6
 90 -19.7063 1.015362  1.842630E-6
 91 -18.9419 1.006033  7.321582E-7
 92 -7.7433 1.004672  5.736982E-7
 93 -1.2076 1.024529  3.047715E-6
 94 10.4878 1.002645  3.325428E-7
 95 -8.5460 1.011721  1.490831E-6
 96 -6.6349 0.985367 -1.883161E-6
 97 17.9790 1.023851  3.105692E-6
 98 -19.4770 1.021958  2.892734E-6
 99 6.5129 1.015758  2.100402E-6
100 16.3738 1.023240  3.134010E-6
101 3.1113 1.013176  1.797653E-6
102 12.3988 0.994880 -7.066503E-7
103 -15.6932 0.997807 -3.062664E-7
104 -4.6475 1.017275  2.440409E-6
105 -8.0873 1.004796  6.854458E-7
106 18.9728 1.005273  7.623784E-7
107 16.7560 1.017797  2.602858E-6
108 -8.2784 0.992427 -1.120396E-6
109 16.2209 1.002164  3.238938E-7
110 -9.7690 1.015132  2.290891E-6
111 2.9584 1.023414  3.585531E-6
112 17.3293 0.996655 -5.181200E-7
113 3.0348 1.011088  1.737257E-6
114 18.7817 0.991468 -1.352047E-6
115 -1.7809 1.017548  2.812537E-6
116 16.1062 1.018892  3.062573E-6
117 16.2209 0.989767 -1.677641E-6
118 1.6589 1.008610  1.427640E-6
119 4.7930 1.021126  3.542678E-6
120 1.9647 1.003590  6.087327E-7
121 -19.4006 1.009762  1.674135E-6
122 17.1382 1.022148  3.840919E-6
123 4.0668 1.024618  4.317134E-6
124 -2.4689 1.018063  3.203154E-6
125 18.7434 1.000717  1.286257E-7
126 16.4120 0.983950 -2.910013E-6
127 -11.3743 1.014147  2.593398E-6
128 -5.2208 1.008328  1.543586E-6
129 7.2009 1.010502  1.967913E-6
130 17.6733 1.013514  2.560208E-6
131 2.0411 0.999219 -1.496429E-7
132 17.1000 1.006615  1.280837E-6
133 -19.4006 1.009132  1.787594E-6
134 -19.9739 1.014176  2.805166E-6
135 -0.8254 1.022049  4.410386E-6
136 18.2848 1.009333  1.887014E-6
137 -8.9282 1.025302  5.170926E-6
138 14.9214 1.002637  5.447439E-7
139 -1.5134 1.030561  6.380609E-6
140 -7.1700 1.015291  3.226631E-6
141 -11.8711 0.998089 -4.075173E-7
142 18.4759 1.013051  2.812936E-6
143 12.6282 0.991985 -1.745820E-6
144 2.0029 1.024767  5.451760E-6
145 6.1689 1.010653  2.369709E-6
146 -17.2602 0.997325 -6.013388E-7
147 -0.0610 1.004683  1.063759E-6
148 -19.0183 1.017782  4.081111E-6
149 -5.1443 1.009840  2.281883E-6
150 -18.6361 0.999487 -1.202685E-7
151 14.8067 1.008934  2.114844E-6
152 -5.5648 0.999691 -7.383555E-8
153 1.9647 1.030566  7.385276E-6
154 0.8945 1.036562  8.924567E-6
155 1.0856 0.997763 -5.516016E-7
156 -8.6606 1.002288  5.699756E-7
157 5.6338 1.024718  6.219647E-6
158 0.2065 1.011982  3.045591E-6
159 -10.9538 1.010717  2.751444E-6
160 9.6088 1.012284  3.185377E-6
161 -3.3480 1.007432  1.946415E-6
162 -10.0748 1.021450  5.674122E-6
163 1.1238 0.998342 -4.429870E-7
164 -8.6224 0.999146 -2.303037E-7
165 -9.3486 1.007063  1.924523E-6
166 -15.5403 1.029614  8.148709E-6
167 15.9533 0.998088 -5.313727E-7
168 19.0110 1.001352  3.793396E-7
169 -11.0303 1.007305  2.069787E-6
170 -1.8192 1.003552  1.016271E-6
171 2.6909 1.001082  3.124585E-7
172 -9.0810 1.005723  1.669256E-6
173 -19.6681 1.002017  5.940777E-7
174 8.4621 0.999724 -8.207035E-8
175 5.9396 1.005407  1.622951E-6
176 14.2716 1.011556  3.501406E-6
177 12.0166 0.990292 -2.969642E-6
178 16.5266 1.007201  2.223462E-6
179 -8.5842 1.003822  1.191421E-6
180 -4.9915 1.009064  2.851978E-6
181 8.3857 0.996051 -1.254136E-6
182 -9.9601 0.995946 -1.299466E-6
183 -19.7828 1.012794  4.139649E-6
184 0.4358 1.009966  3.254666E-6
185 3.1877 1.008711  2.871036E-6
186 18.1319 1.010082  3.353622E-6
187 10.4878 1.001508  5.061381E-7
188 17.3293 1.005950  2.015763E-6
189 -18.0246 0.996267 -1.276169E-6
190 0.9709 0.999979 -7.257822E-9
191 1.6207 1.014951  5.204657E-6
192 7.7742 1.006387  2.243450E-6
193 5.4427 1.029239  1.036361E-5
194 -10.2276 1.008280  2.961165E-6
195 11.6727 1.003347  1.207835E-6
196 -8.5842 0.996780 -1.172208E-6
197 -6.2909 0.998385 -5.931130E-7
198 16.6795 1.000995  3.688777E-7
199 -0.1757 1.006832  2.554200E-6
200 2.5380 1.001662  6.269738E-7
201 0.6652 1.015499  5.896809E-6
202 -7.3993 1.008414  3.229165E-6
203 15.7622 1.003724  1.441767E-6
204 4.1815 1.030834  1.204151E-5
205 17.1382 1.020037  7.892904E-6
206 -18.5215 1.011937  4.743084E-6
207 1.1238 1.006862  2.750173E-6
208 -5.9852 1.016734  6.763859E-6
209 -18.9419 1.011155  4.547788E-6
210 2.7673 1.014555  5.984240E-6
211 12.1313 1.013610  5.643713E-6
212 2.8820 1.017945  7.504407E-6
213 -2.8893 1.013206  5.569411E-6
214 -0.4050 1.010600  4.508036E-6
215 -8.7753 1.010674  4.577790E-6
216 18.2848 1.027267  1.179178E-5
217 3.3788 1.025291  1.102872E-5
218 -1.8574 1.021454  9.433226E-6
219 -19.4388 0.995238 -2.111167E-6
220 -19.4770 0.988408 -5.181776E-6
221 -6.2527 1.000727  3.274662E-7
222 17.1000 1.002337  1.061922E-6
223 -10.6863 1.006879  3.151402E-6
224 4.2197 1.014561  6.725630E-6
225 -2.2396 0.988944 -5.148399E-6
226 -12.0240 1.001772  8.316990E-7
227 2.4998 1.002192  1.037584E-6
228 3.4170 1.027709  1.321929E-5
229 -11.1067 1.017282  8.311025E-6
230 -10.8774 1.004173  2.022764E-6
231 5.3281 0.989200 -5.277258E-6
232 -6.5585 1.017023  8.384851E-6
233 15.8769 1.002059  1.022342E-6
234 -0.5961 1.005875  2.939699E-6
235 2.6144 1.023650  1.192814E-5
236 -3.1951 0.997770 -1.133693E-6
237 3.0731 1.013009  6.664905E-6
238 -8.6606 1.008472  4.374730E-6
239 7.4302 1.035227  1.833149E-5
240 -5.6794 0.990210 -5.134015E-6
241 -19.5917 0.990605 -4.965137E-6
242 -10.6481 0.982984 -9.062475E-6
243 -9.2339 1.024520  1.315994E-5
244 18.3230 1.001997  1.079833E-6
245 4.6783 1.018497  1.008036E-5
246 -6.6349 1.006412  3.521167E-6
247 -19.6681 1.009541  5.279482E-6
248 3.4170 1.020761  1.157498E-5
249 -6.0998 1.001966  1.104485E-6
250 4.8312 1.023431  1.326239E-5
251 -8.6606 1.006436  3.670263E-6
252 -1.1312 1.012828  7.370654E-6
253 15.8769 0.995923 -2.360161E-6
254 -8.4313 1.028892  1.684955E-5
255 -6.3292 1.010093  5.930125E-6
256 8.8061 1.003959  2.343327E-6
257 0.0919 0.978390 -1.288537E-5
258 3.0348 1.007382  4.434422E-6
259 -9.5779 0.997042 -1.790107E-6
260 -9.1957 1.006813  4.152608E-6
261 15.2272 1.006612  4.059961E-6
262 -16.8398 1.009036  5.588307E-6
263 -6.0234 1.013157  8.196647E-6
264 -17.7953 1.015366  9.642187E-6
265 4.3343 0.996561 -2.173826E-6
266 -3.7684 1.002947  1.876326E-6
267 -3.3862 1.011884  7.620040E-6
268 -4.1124 0.995951 -2.614521E-6
269 17.9408 1.017705  1.151533E-5
270 -17.8335 0.995900 -2.685329E-6
271 -12.8266 0.997832 -1.430289E-6
272 -8.8517 0.983651 -1.086177E-5
273 14.1188 1.005793  3.875683E-6
274 3.8757 1.014649  9.870200E-6
275 -4.9150 1.010319  7.001726E-6
276 -19.2859 1.023509  1.606363E-5
277 18.2083 1.002110  1.451508E-6
278 -8.8899 1.021903  1.517604E-5
279 18.7817 1.017385  1.212905E-5
280 -12.7120 1.034327  2.411594E-5
281 2.0029 0.994200 -4.102969E-6
282 15.7622 0.991385 -6.136474E-6
283 18.7052 1.014808  1.062006E-5
284 -7.8580 1.006820  4.924744E-6
285 -1.0547 1.010737  7.805974E-6
286 -0.6725 0.990998 -6.589581E-6
287 -19.7828 0.997000 -2.210883E-6
288 17.1000 1.012047  8.938567E-6
289 12.6664 1.011836  8.841022E-6
290 18.7052 1.018732  1.408700E-5
291 1.0856 1.014418  1.091596E-5
292 -8.5842 1.005012  3.820104E-6
293 18.1319 0.992848 -5.487417E-6
294 18.6288 1.023278  1.798035E-5
295 2.6144 0.996936 -2.382619E-6
296 -7.2847 1.002161  1.691481E-6
297 14.3481 1.041330  3.256372E-5
298 -9.4632 1.012294  9.750687E-6
299 6.6276 1.005659  4.517517E-6
300 17.4439 1.024488  1.967795E-5
301 18.5523 1.009387  7.592294E-6
302 10.7171 1.006162  5.016462E-6
303 -8.0873 1.007698  6.308172E-6
304 6.3982 1.036215  2.986929E-5
305 7.5448 1.021437  1.779520E-5
306 -19.6299 1.013930  1.163867E-5
307 2.3087 1.006330  5.322353E-6
308 16.4120 1.007926  6.707878E-6
309 -7.5904 1.001617  1.377158E-6
310 -9.6926 1.011864  1.016937E-5
311 7.4684 1.005485  4.731761E-6
312 7.4302 0.989283 -9.304007E-6
313 -4.0359 1.021963  1.918846E-5
314 -9.3868 0.994752 -4.614431E-6
315 -9.8454 0.991817 -7.240347E-6
316 -16.7251 1.011350  1.010554E-5
317 3.6464 0.988334 -1.045233E-5
318 -10.4952 1.032305  2.912521E-5
319 -13.8968 1.009250  8.391832E-6
320 -6.6349 1.017444  1.592378E-5
321 17.1000 1.021008  1.929661E-5
322 -8.0109 1.008932  8.255583E-6
323 7.2009 1.013594  1.264181E-5
324 0.4741 1.003483  3.259333E-6
325 6.4747 0.991759 -7.758963E-6
326 3.8375 0.991222 -8.315762E-6
327 -8.0109 1.009706  9.251256E-6
328 3.4935 0.991725 -7.935059E-6
329 -7.2082 1.024133  2.328324E-5
330 7.8124 1.002315  2.246824E-6
331 -13.5146 0.987181 -1.251850E-5
332 18.6288 1.015386  1.511676E-5
333 13.1633 1.033240  3.285458E-5
334 17.7497 0.997500 -2.485556E-6
335 -8.5077 1.010928  1.093160E-5
336 16.7178 1.012307  1.238493E-5
337 -9.1957 1.006465  6.544833E-6
338 -9.3104 1.007248  7.382009E-6
339 -9.7308 1.002176  2.229127E-6
340 -10.1130 1.003569  3.678518E-6
341 18.1701 0.999090 -9.429025E-7
342 18.1319 0.997671 -2.428280E-6
343 -5.1443 1.001764  1.850127E-6
344 17.2146 1.034644  3.655518E-5
345 -19.8974 0.996383 -3.839327E-6
346 2.0793 1.010640  1.135929E-5
347 -3.1187 1.017934  1.925777E-5
348 16.8324 1.011193  1.208902E-5
349 17.8261 1.012688  1.378346E-5
350 -9.2339 1.013657  1.492223E-5
351 18.3612 1.003387  3.722664E-6
352 3.7610 1.003751  4.146026E-6
353 -6.7496 1.023614  2.625151E-5
354 -5.7176 1.023240  2.598514E-5
355 19.1256 1.002628  2.955287E-6
356 -5.9087 1.013753  1.555371E-5
357 -8.6988 1.010394  1.182226E-5
358 18.4377 1.000540  6.179487E-7
359 -14.2026 1.000473  5.445492E-7
360 -9.0428 1.003648  4.220719E-6
361 3.4170 1.009376  1.090815E-5
362 -4.7621 1.025030  2.928615E-5
363 -6.9789 1.007934  9.335041E-6
364 5.0223 1.009937  1.175772E-5
365 7.7360 1.011012  1.310333E-5
366 -9.6161 0.992819 -8.592630E-6
367 8.2710 1.012922  1.554799E-5
368 -10.6099 1.012058  1.458966E-5
369 -19.5534 1.010469  1.273722E-5
370 19.0492 1.020782  2.542466E-5
371 2.8820 0.994549 -6.705800E-6
372 -7.3229 1.001977  2.446032E-6
373 1.0474 1.016531  2.056095E-5
374 -8.0491 1.000934  1.167583E-6
375 -11.9093 1.002716  3.414706E-6
376 -3.6155 0.997224 -3.510067E-6
377 1.3914 1.001099  1.396989E-6
378 18.0937 1.011083  1.416538E-5
379 14.7303 1.012801  1.645028E-5
380 -7.8580 0.982685 -2.237219E-5
381 0.8945 1.007266  9.439110E-6
382 -4.6857 1.020222  2.641139E-5
383 2.8437 0.994332 -7.442144E-6
384 17.1764 1.007820  1.032376E-5
385 2.3851 1.025868  3.433315E-5
386 -9.1193 1.019785  2.640007E-5
387 16.9853 1.007165  9.611531E-6
388 -19.7445 1.006734  9.082012E-6
389 -11.4507 1.013384  1.814633E-5
390 6.7804 0.989675 -1.407233E-5
391 18.1319 1.007809  1.069988E-5
392 17.7115 1.009024  1.243074E-5
393 14.7303 1.019604  2.714649E-5
394 16.6413 1.017358  2.416308E-5
395 6.0543 0.996366 -5.085266E-6
396 1.9647 1.014209  1.998695E-5
397 16.9853 1.015174  2.145540E-5
398 1.3531 0.992688 -1.039316E-5
399 -7.9344 1.015894  2.270949E-5
400 7.4302 1.019445  2.792732E-5
401 -19.2095 1.009899  1.429119E-5
402 4.7548 1.009283  1.347139E-5
403 16.8706 1.015398  2.245943E-5
404 18.5141 1.015629  2.291431E-5
405 16.2209 1.007079  1.043217E-5
406 2.1940 0.997100 -4.296070E-6
407 -8.6224 0.989622 -1.545094E-5
408 -6.2527 1.014422  2.158117E-5
409 3.3024 0.988149 -1.782448E-5
410 0.7416 1.006886  1.040918E-5
411 15.6858 1.009804  1.489626E-5
412 -18.2922 1.026331  4.020941E-5
413 17.7497 0.998691 -2.008933E-6
414 -0.7108 1.009979  1.539285E-5
415 18.3612 0.995133 -7.545985E-6
416 18.1701 1.013789  2.148504E-5
417 1.4678 1.021496  3.366201E-5
418 16.8706 1.010482  1.649617E-5
419 2.1940 1.016720  2.644512E-5
420 18.3612 1.006031  9.586169E-6
421 -13.2853 1.010095  1.612634E-5
422 -11.7947 1.025796  4.141343E-5
423 -18.9037 1.016691  2.692782E-5
424 17.8261 1.005368  8.703867E-6
425 -6.9789 1.014633  2.384175E-5
426 -6.1763 1.008057  1.319281E-5
427 -7.3993 1.003244  5.338001E-6
428 -4.6092 1.033585  5.553261E-5
429 17.7497 1.011922  1.980894E-5
430 18.9345 1.013795  2.303383E-5
431 0.9709 1.020539  3.446236E-5
432 18.8199 1.018154  3.060821E-5
433 1.6971 1.012030  2.038146E-5
434 -4.4564 1.012392  2.109674E-5
435 -7.3611 0.994825 -8.852505E-6
436 1.5825 1.019311  3.319528E-5
437 -10.1894 1.008479  1.464535E-5
438 -19.0566 1.019900  3.453795E-5
439 17.5968 1.001882  3.282597E-6
440 -6.7878 1.018434  3.230099E-5
441 10.6789 1.009381  1.651682E-5
442 -6.5585 0.981439 -3.283583E-5
443 3.3406 1.009324  1.657391E-5
444 -7.4376 0.990727 -1.656080E-5
445 5.2516 1.000521  9.353916E-7
446 17.7115 1.036999  6.670830E-5
447 -16.9544 1.042640  7.724305E-5
448 -6.2527 1.002171  3.951201E-6
449 -9.7308 1.010306  1.884518E-5
450 -12.9413 0.990180 -1.804238E-5
451 -7.6669 0.999609 -7.225850E-7
452 -7.2847 0.992569 -1.378134E-5
453 4.9841 0.990696 -1.733490E-5
454 -11.4125 1.015636  2.926965E-5
455 -4.6475 1.026192  4.925837E-5
456 17.9408 0.997571 -4.589312E-6
457 -3.2715 0.992603 -1.404149E-5
458 3.6081 0.988504 -2.192236E-5
459 -3.5391 1.001438  2.754939E-6
460 16.1444 1.007864  1.513549E-5
461 19.0874 0.991985 -1.549713E-5
462 -6.7114 1.016103  3.127868E-5
463 -0.2521 1.006215  1.212786E-5
464 18.4759 1.014332  2.809427E-5
465 5.4045 1.047290  9.312621E-5
466 18.9345 1.029225  5.781366E-5
467 16.1444 1.007114  1.413726E-5
468 -17.8335 1.025681  5.126620E-5
469 17.6733 1.009823  1.969814E-5
470 -10.8392 0.996195 -7.665060E-6
471 -4.1506 0.999592 -8.249449E-7
472 4.0286 0.998314 -3.428184E-6
473 2.9966 1.032744  6.685966E-5
474 -15.3492 1.007757  1.591103E-5
475 -4.8386 1.017421  3.589363E-5
476 3.8757 1.011514  2.382927E-5
477 -9.2721 0.999795 -4.269859E-7
478 -8.5077 0.996888 -6.497473E-6
479 18.6288 0.982478 -3.675186E-5
480 -0.4432 1.012514  2.636418E-5
481 19.0110 1.021320  4.511628E-5
482 -9.4250 1.009656  2.052460E-5
483 18.0172 1.018991  4.054485E-5
484 -9.3868 1.014745  3.161908E-5
485 3.6081 1.005810  1.251357E-5
486 -1.2458 1.005637  1.219556E-5
487 18.4759 1.022726  4.938128E-5
488 12.7810 1.016026  3.497518E-5
489 -8.1255 1.013777  3.020035E-5
490 -7.8198 1.022808  5.021440E-5
491 -19.8210 0.991499 -1.879778E-5
492 -19.9356 1.003463  7.690766E-6
493 -3.2715 1.020936  4.669956E-5
494 -0.9019 1.021439  4.802935E-5
495 -19.2859 1.015271  3.435879E-5
496 14.9978 1.006001  1.356033E-5
497 -7.7433 1.007626  1.730709E-5
498 -13.5910 1.006873  1.566529E-5
499 18.5141 1.026413  6.046259E-5
500 6.1307 1.020973  4.821538E-5
501 -7.7051 1.025685  5.930202E-5
502 -10.1894 1.007209  1.671657E-5
503 -7.7051 1.018995  4.423191E-5
504 5.8249 1.016337  3.820603E-5
505 -3.9213 1.000057  1.340677E-7
506 4.7548 1.024831  5.856712E-5
507 -7.0171 1.001487  3.521325E-6
508 4.8312 0.999558 -1.052011E-6
509 -8.2784 0.986420 -3.243860E-5
510 10.5643 1.001339  3.211159E-6
511 -18.9419 1.005081  1.223901E-5
512 4.1432 1.022316  5.398509E-5
513 17.4439 1.010864  2.639136E-5
514 -8.7753 1.028524  6.958655E-5
515 18.2466 0.976167 -5.838549E-5
516 -8.1637 1.005733  1.410435E-5
517 5.0987 1.008619  2.129121E-5
518 -10.4188 1.001505  3.733747E-6
519 -18.2157 1.019160  4.772811E-5
520 8.0799 1.005516  1.379807E-5
521 8.3857 0.997253 -6.898611E-6
522 -7.5140 1.004891  1.233718E-5
523 0.7034 1.005449  1.380075E-5
524 1.4296 1.004724  1.201357E-5
525 -19.9739 1.003673  9.379048E-6
526 0.0154 1.025366  6.504167E-5
527 1.1620 0.980175 -5.104181E-5
528 -9.0428 1.007626  1.971617E-5
529 11.7873 1.029163  7.570316E-5
530 17.2146 1.020738  5.405192E-5
531 16.6795 0.996441 -9.314604E-6
532 5.2516 1.007268  1.909959E-5
533 -9.1957 0.979010 -5.538110E-5
534 5.0987 1.024826  6.577074E-5
535 17.5204 1.018444  4.906119E-5
536 -7.4758 0.992201 -2.082933E-5
537 -19.1712 0.997207 -7.491063E-6
538 -5.2972 1.022222  5.983054E-5
539 3.4553 1.005893  1.593035E-5
540 -3.0804 0.998708 -3.505798E-6
541 16.6413 1.026303  7.167814E-5
542 -8.1637 1.002431  6.650603E-6
543 18.7817 1.010939  3.005021E-5
544 -9.8837 1.007891  2.176421E-5
545 15.2272 1.010652  2.949569E-5
546 15.6094 1.006859  1.906846E-5
547 6.4747 1.001462  4.079919E-6
548 -11.8329 0.991163 -2.476444E-5
549 2.7291 0.995355 -1.306833E-5
550 -13.0560 1.008303  2.345181E-5
551 -5.7176 0.996826 -9.001004E-6
552 -8.4313 1.015985  4.550904E-5
553 2.2704 1.021948  6.273256E-5
554 -11.9476 1.024481  7.024902E-5
555 0.3594 0.998689 -3.777529E-6
 2.888772   0.00  10.00 -0.00 0.09
  0 -0.3668 0.908940 -5.127101E-6 
  1 -1.5516 0.891012 -6.140692E-6 
  2 -4.5710 1.094073  5.305227E-6 
  3 -2.8511 1.017015  9.607163E-7 
  4 1.6207 1.008352  4.722318E-7 
  5 -12.4062 1.006332  3.586184E-7 
  6 -3.7302 1.027984  1.588086E-6 
  7 -2.5071 1.022397  1.273836E-6 
  8 -1.2841 0.991418 -4.892917E-7 
  9 -3.0804 1.034440  1.968917E-6 
 10 -0.6725 1.025434  1.458305E-6 
 11 -1.8192 1.008647  4.973708E-7 
 12 -8.5460 1.023612  1.362857E-6 
 13 18.9728 1.000660  3.825470E-8 
 14 -1.5134 1.003125  1.817431E-7 
 15 17.9026 1.004401  2.570530E-7 
 16 8.0799 1.033788  1.982008E-6 
 17 8.9972 1.011883  7.002807E-7 
 18 -19.1330 1.020780  1.230596E-6 
 19 -2.3160 1.014490  8.624346E-7 
 20 -2.7364 1.010082  6.032756E-7 
 21 -0.5197 1.028918  1.739960E-6 
 22 0.3976 0.999944 -3.377907E-9 
 23 -2.0867 1.034233  2.083964E-6 
 24 0.9709 1.023069  1.412995E-6 
 25 -4.6857 1.008345  5.144089E-7 
 26 -14.0879 1.008158  5.062215E-7 
 27 8.9590 1.006690  4.178965E-7 
 28 8.2328 1.022274  1.401137E-6 
 29 18.5906 1.016362  1.036632E-6 
 30 17.0235 1.023417  1.494497E-6 
 31 -0.2521 1.012992  8.353933E-7 
 32 -2.1631 0.994373 -3.646281E-7 
 33 1.6589 1.006843  4.468959E-7 
 34 -4.8386 1.007872  5.182646E-7 
 35 -2.6982 1.012674  8.412488E-7 
 36 16.7560 1.001283  8.585413E-8 
 37 17.4057 1.014218  9.598101E-7 
 38 -6.4820 1.013443  9.153555E-7 
 39 7.2773 1.003526  2.422230E-7 
 40 -3.6920 1.006164  4.272433E-7 
 41 -2.7364 0.990219 -6.840848E-7 
 42 3.5699 1.021786  1.537885E-6 
 43 7.8506 1.001802  1.284096E-7 
 44 0.6270 1.018933  1.361830E-6 
 45 -2.4689 1.029837  2.166842E-6 
 46 -1.1312 1.005136  3.766551E-7 
 47 -3.5773 1.019479  1.442531E-6 
 48 -3.1187 1.023679  1.771047E-6 
 49 -1.4752 1.009852  7.443349E-7 
 50 -2.5836 1.005170  3.945711E-7 
 51 -1.4752 1.005326  4.106451E-7 
 52 -0.3286 1.002362  1.840102E-7 
 53 0.9327 0.997088 -2.292407E-7 
 54 -7.3611 1.035549  2.828028E-6 
 55 -1.3605 1.006076  4.885147E-7 
 56 17.1382 1.004185  3.401028E-7 
 57 5.8249 0.994480 -4.534050E-7 
 58 -3.9213 1.003199  2.656396E-7 
 59 17.7879 1.009321  7.824208E-7 
 60 -2.9658 1.006541  5.551360E-7 
 61 -18.6361 1.011726  1.006173E-6 
 62 -3.3480 1.026618  2.309521E-6 
 63 6.0543 1.001476  1.295247E-7 
 64 16.2591 1.020021  1.776369E-6 
 65 5.9014 1.010106  9.068090E-7 
 66 9.3030 1.052946  4.804635E-6 
 67 17.9408 1.015630  1.434505E-6 
 68 7.3155 1.011235  1.042958E-6 
 69 -1.6663 1.017545  1.647432E-6 
 70 -5.4119 0.995765 -4.022673E-7 
 71 18.2848 1.008937  8.585946E-7 
 72 7.7360 1.010153  9.867739E-7 
 73 18.4759 0.999692 -3.024320E-8 
 74 -2.7364 1.007192  7.153350E-7 
 75 8.2710 1.000872  8.770985E-8 
 76 6.9715 1.006926  7.050632E-7 
 77 -11.6800 0.999070 -9.576361E-8 
 78 -9.8454 1.014630  1.524507E-6 
 79 7.6595 1.013102  1.381296E-6 
 80 -4.6092 1.021582  2.302089E-6 
 81 7.0098 1.005794  6.253216E-7 
 82 -12.5591 0.984132 -1.732697E-6 
 83 18.2466 1.005682  6.277270E-7 
 84 18.4759 0.998874 -1.258381E-7 
 85 -14.4319 1.007745  8.759881E-7 
 86 6.8187 1.015248  1.744989E-6 
 87 6.6276 1.013355  1.546427E-6 
 88 -11.6036 1.015342  1.797607E-6 
 89 -3.8066 1.008897  1.054779E-6 
 90 8.1182 1.025685  3.080977E-6 
 91 6.7422 1.020248  2.457517E-6 
 92 -2.8129 0.993232 -8.310824E-7 
 93 7.5448 1.027355  3.398904E-6 
 94 18.1319 0.991785 -1.032722E-6 
 95 6.2071 1.020757  2.640278E-6 
 96 -8.8899 0.974838 -3.238301E-6 
 97 -2.6218 1.016410  2.136725E-6 
 98 -18.2157 1.011611  1.529615E-6 
 99 -3.8831 0.995405 -6.124502E-7 
100 -6.9789 1.003632  4.898003E-7 
101 -12.2533 1.008535  1.164462E-6 
102 7.7360 1.002490  3.436722E-7 
103 8.5768 0.995799 -5.865755E-7 
104 -4.4181 1.028123  3.972882E-6 
105 -8.4313 0.982586 -2.488686E-6 
106 -3.5009 1.004711  6.810693E-7 
107 8.1946 0.988984 -1.611209E-6 
108 -2.6218 1.010115  1.496560E-6 
109 -4.6092 1.006059  9.068069E-7 
110 15.5329 1.006144  9.300806E-7 
111 -3.4626 1.028001  4.288003E-6 
112 -7.7051 1.009136  1.415091E-6 
113 -4.4564 1.019933  3.123006E-6 
114 6.5511 0.994682 -8.427690E-7 
115 10.3349 1.010670  1.710241E-6 
116 8.4621 1.016006  2.594701E-6 
117 17.3675 0.992465 -1.235449E-6 
118 6.1307 0.996645 -5.562816E-7 
119 6.3982 1.009981  1.673734E-6 
120 6.5511 1.000997  1.691413E-7 
121 8.3093 1.018215  3.123810E-6 
122 -4.4181 1.009995  1.733418E-6 
123 5.9778 1.008396  1.472308E-6 
124 17.8644 1.007427  1.317110E-6 
125 -6.9789 0.997701 -4.122405E-7 
126 -2.7364 1.025332  4.592772E-6 
127 7.1244 0.985244 -2.704935E-6 
128 17.3675 1.025207  4.671911E-6 
129 7.3537 1.005647  1.058174E-6 
130 4.7930 1.011316  2.143807E-6 
131 15.8005 1.021643  4.145402E-6 
132 5.9396 0.999946 -1.047804E-8 
133 -4.3417 1.020888  4.088650E-6 
134 7.1626 0.990888 -1.803077E-6 
135 7.3537 0.983488 -3.302853E-6 
136 -14.7377 0.999628 -7.527704E-8 
137 2.6526 1.021395  4.372473E-6 
138 17.4439 1.009309  1.922936E-6 
139 7.9653 1.012489  2.607542E-6 
140 7.7360 1.016551  3.492577E-6 
141 17.5968 0.985587 -3.073893E-6 
142 -18.9419 1.022950  4.946557E-6 
143 -6.6349 1.001489  3.242542E-7 
144 17.1000 1.035938  7.910849E-6 
145 -14.2026 0.992139 -1.748705E-6 
146 -19.3623 0.993345 -1.495859E-6 
147 17.2528 1.004604  1.045779E-6 
148 -11.8329 1.031532  7.236859E-6 
149 11.4816 1.003082  7.145799E-7 
150 -6.3292 1.016284  3.815380E-6 
151 6.5893 1.013380  3.167380E-6 
152 17.9026 1.003594  8.595385E-7 
153 6.7422 1.032154  7.769188E-6 
154 17.2911 0.999341 -1.608227E-7 
155 6.3600 1.010289  2.537098E-6 
156 -3.7302 1.006207  1.546236E-6 
157 -11.6036 1.015353  3.863187E-6 
158 -1.9720 1.007257  1.844656E-6 
159 6.3600 1.007769  1.994701E-6 
160 8.1946 1.015415  3.997384E-6 
161 17.9408 0.995306 -1.229537E-6 
162 17.5204 0.998640 -3.596969E-7 
163 18.1319 0.995253 -1.268324E-6 
164 -11.1832 0.983191 -4.535281E-6 
165 8.8443 1.011002  2.997940E-6 
166 -18.7508 0.995422 -1.259752E-6 
167 -8.0109 1.016811  4.671413E-6 
168 7.5448 1.011639  3.265908E-6 
169 17.8644 1.018639  5.280958E-6 
170 9.3412 1.009432  2.698325E-6 
171 0.0919 0.995314 -1.353473E-6 
172 18.9728 1.009505  2.772231E-6 
173 -13.8204 1.017074  5.027611E-6 
174 -16.4194 1.009610  2.856917E-6 
175 18.9345 0.995558 -1.333202E-6 
176 17.7115 1.023892  7.239467E-6 
177 -12.4827 1.020103  6.149171E-6 
178 -2.1631 1.019402  5.990921E-6 
179 -11.8711 1.004687  1.460809E-6 
180 -10.0365 1.009675  3.044033E-6 
181 9.0737 1.000534  1.694651E-7 
182 -3.6537 0.985779 -4.558720E-6 
183 -3.5773 0.996967 -9.814609E-7 
184 -2.4307 0.998491 -4.926368E-7 
185 6.0543 1.002077  6.846731E-7 
186 -19.3623 1.013379  4.450154E-6 
187 15.8005 1.001429  4.796256E-7 
188 17.7497 1.021823  7.392935E-6 
189 3.0731 0.993920 -2.078569E-6 
190 9.4941 1.035405  1.221413E-5 
191 17.8644 0.999170 -2.890528E-7 
192 -12.3680 0.999825 -6.138853E-8 
193 -3.6537 1.009895  3.507070E-6 
194 6.9333 1.013359  4.777691E-6 
195 -9.8837 1.016723  6.034271E-6 
196 8.3093 1.007455  2.714214E-6 
197 -3.7302 0.997364 -9.680979E-7 
198 15.6476 0.998780 -4.521313E-7 
199 5.2134 0.988533 -4.286839E-6 
200 -11.2214 1.000656  2.472525E-7 
201 -19.7445 0.998569 -5.445016E-7 
202 -13.4764 1.018161  6.970435E-6 
203 -13.9733 1.014330  5.547842E-6 
204 -11.5271 1.008980  3.507110E-6 
205 -3.6537 1.016140  6.357963E-6 
206 16.9089 0.995088 -1.951614E-6 
207 17.8644 1.014877  5.962029E-6 
208 7.3155 1.004222  1.706468E-6 
209 6.8569 1.001847  7.530573E-7 
210 17.8261 1.013507  5.553556E-6 
211 -3.0804 1.004353  1.805060E-6 
212 6.0925 0.998566 -5.997827E-7 
213 15.3036 1.028727  1.211491E-5 
214 -8.5842 0.991623 -3.562632E-6 
215 7.2009 1.003712  1.591950E-6 
216 6.1307 1.021686  9.378258E-6 
217 5.9778 1.000274  1.193914E-7 
218 4.7548 1.019788  8.700632E-6 
219 -17.6042 1.025884  1.147597E-5 
220 -2.4689 1.004622  2.065962E-6 
221 -3.0422 1.008425  3.797252E-6 
222 -3.7684 1.001298  5.896875E-7 
223 17.4439 1.029918  1.370692E-5 
224 16.0298 1.004992  2.305906E-6 
225 6.9333 0.983352 -7.752315E-6 
226 17.3293 1.000061  2.843369E-8 
227 -19.9739 1.004832  2.286793E-6 
228 17.5204 0.999314 -3.273863E-7 
229 5.3281 0.990133 -4.745255E-6 
230 -3.1951 1.028069  1.360701E-5 
231 -10.2276 1.018735  9.154881E-6 
232 17.2911 1.029317  1.444015E-5 
233 7.5448 1.003765  1.869196E-6 
234 5.2516 1.018502  9.258542E-6 
235 7.3537 1.022866  1.153299E-5 
236 17.3675 0.996515 -1.771346E-6 
237 18.9728 1.011809  6.050309E-6 
238 -4.9915 1.018068  9.329102E-6 
239 18.8963 1.023341  1.214636E-5 
240 -11.0685 0.999882 -6.180517E-8 
241 8.0799 0.997974 -1.070707E-6 
242 17.6350 1.007245  3.858729E-6 
243 -16.1900 1.025459  1.366375E-5 
244 -3.9213 1.010780  5.830340E-6 
245 17.9026 0.996018 -2.170160E-6 
246 6.4747 1.001970  1.082044E-6 
247 -12.4062 1.005370  2.971413E-6 
248 -11.4125 1.014307  7.976770E-6 
249 -8.5077 1.007071  3.972377E-6 
250 8.4239 0.987998 -6.793169E-6 
251 7.6595 1.004475  2.552111E-6 
252 -8.4695 1.005412  3.109458E-6 
253 17.5968 1.007129  4.126709E-6 
254 19.0110 1.023919  1.394926E-5 
255 6.7040 0.993823 -3.629186E-6 
256 -4.1506 1.004593  2.718528E-6 
257 9.0737 0.995264 -2.824130E-6 
258 7.5831 1.021452  1.288586E-5 
259 -2.4689 0.987227 -7.728844E-6 
260 9.7616 0.998942 -6.448765E-7 
261 17.1000 1.003934  2.415294E-6 
262 8.0417 0.995211 -2.961752E-6 
263 -3.0422 1.013226  8.239550E-6 
264 6.0160 1.023589  1.480235E-5 
265 -2.3925 1.000616  3.891088E-7 
266 16.4502 1.011840  7.537481E-6 
267 -4.6475 1.014322  9.183256E-6 
268 -6.5967 0.999914 -5.573170E-8 
269 -7.5140 1.028343  1.843421E-5 
270 5.5574 0.992943 -4.622597E-6 
271 6.9715 0.994592 -3.567956E-6 
272 8.5768 1.008868  5.891560E-6 
273 -2.7364 1.031702  2.121076E-5 
274 8.1564 1.015708  1.058399E-5 
275 -13.1706 1.016253  1.102806E-5 
276 7.0480 0.999601 -2.725294E-7 
277 15.4183 0.999833 -1.147927E-7 
278 -19.4006 1.014124  9.785738E-6 
279 -9.8072 0.994591 -3.773924E-6 
280 7.6213 1.009393  6.598504E-6 
281 4.0668 0.999851 -1.056674E-7 
282 8.9972 0.996403 -2.561663E-6 
283 13.0104 1.000071  5.114004E-8 
284 5.0605 1.003712  2.680631E-6 
285 -3.2715 1.012734  9.258097E-6 
286 -6.7878 0.996524 -2.544742E-6 
287 -4.6475 1.016322  1.202885E-5 
288 -3.1951 1.002027  1.503846E-6 
289 7.2009 1.002407  1.798244E-6 
290 17.2911 0.995442 -3.427626E-6 
291 -9.2721 0.997307 -2.038553E-6 
292 -2.7747 1.011581  8.826629E-6 
293 7.0098 1.001894  1.453467E-6 
294 7.1244 1.019881  1.535643E-5 
295 -9.7308 1.002779  2.160743E-6 
296 17.8644 1.009956  7.792716E-6 
297 6.5511 1.016304  1.284555E-5 
298 -18.0246 1.021270  1.686896E-5 
299 16.8324 1.015762  1.258329E-5 
300 17.1382 1.009548  7.672735E-6 
301 -19.5152 1.015757  1.274463E-5 
302 8.0035 1.012398  1.009346E-5 
303 18.2848 1.009453  7.745745E-6 
304 5.1752 1.013658  1.126461E-5 
305 5.7103 1.011139  9.247062E-6 
306 18.6288 1.008165  6.821705E-6 
307 6.7804 1.009342  7.855522E-6 
308 18.5523 1.015327  1.297107E-5 
309 -3.6537 0.994421 -4.751841E-6 
310 7.7360 1.002465  2.113100E-6 
311 17.7115 0.995995 -3.455142E-6 
312 6.0925 0.986697 -1.154883E-5 
313 6.5511 1.006182  5.400575E-6 
314 -1.1694 1.011864  1.043051E-5 
315 -12.9413 1.015751  1.393547E-5 
316 -6.8643 1.002443  2.174899E-6 
317 -3.0804 1.015572  1.395136E-5 
318 10.3349 0.990196 -8.839292E-6 
319 6.8951 1.023868  2.165284E-5 
320 8.4239 1.017083  1.559470E-5 
321 6.0160 1.021738  1.996741E-5 
322 6.2071 0.998340 -1.533987E-6 
323 6.3982 1.007277  6.767344E-6 
324 7.7742 1.004642  4.343800E-6 
325 17.6733 0.995444 -4.289594E-6 
326 -19.6681 0.998110 -1.789973E-6 
327 -10.0748 1.023676  2.256592E-5 
328 -4.1888 1.019233  1.844282E-5 
329 -0.5197 1.021973  2.119924E-5 
330 17.0235 1.021009  2.039296E-5 
331 -8.3548 1.008693  8.488720E-6 
332 14.0041 1.013625  1.338628E-5 
333 -8.8899 1.014642  1.447192E-5 
334 7.3155 1.005945  5.911702E-6 
335 16.0298 0.990374 -9.629563E-6 
336 5.5956 0.993775 -6.265047E-6 
337 6.6276 1.004534  4.590030E-6 
338 7.6977 1.007324  7.459022E-6 
339 18.1701 1.000051  5.240235E-8 
340 -6.8260 1.018300  1.886016E-5 
341 -4.4564 0.993710 -6.520568E-6 
342 -10.1130 0.999975 -2.611321E-8 
343 -10.3805 1.019884  2.085801E-5 
344 -15.2727 1.013804  1.456579E-5 
345 -5.9087 0.985751 -1.512331E-5 
346 5.9396 1.002614  2.790745E-6 
347 -2.9275 1.014833  1.592770E-5 
348 -0.5961 0.993082 -7.471925E-6 
349 17.3293 1.004407  4.787960E-6 
350 -2.6218 1.033821  3.695507E-5 
351 -19.3623 0.983358 -1.828922E-5 
352 16.9853 0.988498 -1.271364E-5 
353 -3.3862 1.019017  2.114169E-5 
354 17.4822 0.994523 -6.124328E-6 
355 -3.1569 0.986097 -1.563396E-5 
356 2.1940 0.999082 -1.037756E-6 
357 7.0098 1.020082  2.284122E-5 
358 -4.6092 1.015450  1.767317E-5 
359 7.6977 1.023646  2.720240E-5 
360 10.3732 0.998545 -1.682847E-6 
361 17.9408 1.006851  7.971462E-6 
362 17.7879 1.019783  2.314649E-5 
363 14.6921 1.005250  6.177512E-6 
364 4.8694 0.984358 -1.850822E-5 
365 -11.2596 1.007719  9.184035E-6 
366 -16.6487 0.990135 -1.180423E-5 
367 17.1764 1.003303  3.974640E-6 
368 12.5517 0.990868 -1.104902E-5 
369 6.0925 1.019714  2.398459E-5 
370 6.3218 1.002699  3.301973E-6 
371 -4.0742 1.004601  5.659553E-6 
372 -10.6863 0.989868 -1.253248E-5 
373 6.2836 1.011843  1.473018E-5 
374 12.5135 0.995564 -5.546966E-6 
375 16.7178 1.016441  2.067355E-5 
376 6.8187 0.997068 -3.707003E-6 
377 18.2466 1.025432  3.232990E-5 
378 4.6401 1.012736  1.627860E-5 
379 6.6276 0.997339 -3.419342E-6 
380 18.3995 1.006699  8.655711E-6 
381 16.8324 1.013443  1.746346E-5 
382 7.0480 1.011842  1.546655E-5 
383 -1.0165 1.006293  8.263162E-6 
384 17.2911 1.029874  3.943903E-5 
385 -6.5967 0.999253 -9.916738E-7 
386 -10.2276 1.021970  2.931581E-5 
387 7.6977 1.007923  1.062791E-5 
388 -2.2396 1.016455  2.219185E-5 
389 7.2391 1.031160  4.224710E-5 
390 7.7742 1.017785  2.424054E-5 
391 6.4365 0.998348 -2.263845E-6 
392 18.2848 1.011779  1.622564E-5 
393 -11.3743 1.034099  4.721792E-5 
394 7.3920 1.004000  5.567400E-6 
395 -19.9356 0.990448 -1.336600E-5 
396 7.3537 1.012081  1.699318E-5 
397 7.5831 1.023987  3.391817E-5 
398 8.5768 1.028866  4.102891E-5 
399 -1.9720 0.998896 -1.577765E-6 
400 -3.5009 1.002822  4.052812E-6 
401 -5.0297 0.996330 -5.298086E-6 
402 18.5906 1.008270  1.200011E-5 
403 6.5129 1.013346  1.946666E-5 
404 8.6532 1.000296  4.342212E-7 
405 7.7360 1.023587  3.475879E-5 
406 -3.9213 0.989389 -1.571677E-5 
407 8.6532 1.004241  6.314699E-6 
408 5.7867 1.003928  5.877373E-6 
409 17.3675 1.011864  1.784482E-5 
410 -3.6537 1.009529  1.440499E-5 
411 -1.7045 1.003983  6.051035E-6 
412 -14.5083 1.037580  5.738794E-5 
413 16.1444 0.995119 -7.491963E-6 
414 -7.2082 1.003989  6.153348E-6 
415 -16.4958 1.023544  3.650106E-5 
416 16.4502 1.011563  1.801627E-5 
417 18.0937 1.018084  2.831789E-5 
418 -4.8386 0.994750 -8.262797E-6 
419 17.5586 1.007419  1.173385E-5 
420 -11.5654 1.009276  1.474525E-5 
421 -4.4181 1.013009  2.078187E-5 
422 7.0480 1.005630  9.037676E-6 
423 7.5448 0.996500 -5.646149E-6 
424 7.8888 1.018930  3.069115E-5 
425 -13.0942 1.019519  3.180324E-5 
426 -19.8210 1.010858  1.777863E-5 
427 15.6858 1.015857  2.609090E-5 
428 -15.3492 0.995156 -8.009459E-6 
429 6.3600 1.011833  1.966114E-5 
430 7.8506 1.001764  2.945594E-6 
431 -2.6600 1.012372  2.075835E-5 
432 17.8261 1.011591  1.954320E-5 
433 -17.6042 1.001227  2.078039E-6 
434 -13.2853 1.019160  3.261966E-5 
435 -8.2020 1.005298  9.063907E-6 
436 7.9271 1.011165  1.919306E-5 
437 17.7879 1.008552  1.477160E-5 
438 18.3230 1.020556  3.567623E-5 
439 -12.9795 0.979261 -3.616690E-5 
440 9.2648 1.012238  2.144407E-5 
441 -17.6042 1.026791  4.717057E-5 
442 7.0098 1.001889  3.341949E-6 
443 6.8187 1.004922  8.749797E-6 
444 -4.4564 1.021819  3.896766E-5 
445 8.3857 1.006904  1.238823E-5 
446 7.5066 1.030025  5.413386E-5 
447 -11.3743 0.997577 -4.389052E-6 
448 6.3218 1.000991  1.804005E-6 
449 16.4502 1.014841  2.713902E-5 
450 8.6532 0.998574 -2.619461E-6 
451 17.2911 1.004358  8.043609E-6 
452 -2.5836 1.014058  2.607087E-5 
453 17.6733 1.007822  1.457442E-5 
454 -12.0622 1.015231  2.851134E-5 
455 6.9333 1.021669  4.075080E-5 
456 -4.9532 0.999428 -1.080324E-6 
457 7.9271 1.004669  8.863281E-6 
458 -4.6092 0.975942 -4.587717E-5 
459 18.1701 1.017382  3.329963E-5 
460 -1.6663 0.999237 -1.468027E-6 
461 6.3982 1.000296  5.722742E-7 
462 -3.3862 1.006268  1.217485E-5 
463 -4.3035 1.018696  3.648140E-5 
464 16.4502 1.016516  3.237603E-5 
465 14.0041 1.033815  6.658985E-5 
466 8.1182 1.018442  3.648172E-5 
467 7.5448 1.010468  2.080256E-5 
468 -19.7828 1.016685  3.330859E-5 
469 -3.0040 1.009101  1.825139E-5 
470 -3.6537 1.031470  6.339475E-5 
471 -4.5328 1.010265  2.077134E-5 
472 -2.4689 1.013330  2.709674E-5 
473 18.1319 1.007528  1.537145E-5 
474 -3.3480 1.019637  4.027656E-5 
475 -19.5534 0.998472 -3.148248E-6 
476 9.1119 1.025280  5.231817E-5 
477 19.0110 0.991715 -1.722329E-5 
478 14.3481 1.001054  2.200487E-6 
479 6.9715 1.022048  4.624473E-5 
480 6.7422 1.000053  1.114852E-7 
481 -9.7690 1.011038  2.335798E-5 
482 15.5711 1.014006  2.976938E-5 
483 -10.7627 1.015037  3.210424E-5 
484 7.8124 1.019764  4.238191E-5 
485 7.7742 1.003016  6.495127E-6 
486 8.4239 1.021602  4.673393E-5 
487 -13.7439 0.989517 -2.277945E-5 
488 10.2967 1.012527  2.733856E-5 
489 -1.2458 1.006331  1.387808E-5 
490 -12.0622 1.006787  1.494312E-5 
491 -2.1249 0.994003 -1.326127E-5 
492 -2.8893 0.995487 -1.002283E-5 
493 17.1764 0.997143 -6.373487E-6 
494 -19.2859 1.017801  3.987901E-5 
495 7.1626 1.038866  8.744621E-5 
496 -12.9031 1.013970  3.156838E-5 
497 -0.2139 1.004307  9.775129E-6 
498 7.6213 1.039960  9.107915E-5 
499 -3.7684 1.016600  3.799913E-5 
500 5.7867 1.013725  3.155301E-5 
501 -4.0359 0.998139 -4.296170E-6 
502 -3.1569 1.016348  3.790770E-5 
503 6.2454 1.026396  6.146652E-5 
504 9.6088 1.022468  5.254381E-5 
505 -3.8066 0.989638 -2.433552E-5 
506 -12.4444 1.005980  1.410547E-5 
507 6.3600 1.010324  2.445419E-5 
508 -1.8574 0.996157 -9.140293E-6 
509 6.0160 1.009889  2.362287E-5 
510 -0.9019 1.007675  1.841129E-5 
511 9.2648 0.989378 -2.558776E-5 
512 7.8888 1.021651  5.237794E-5 
513 -13.9733 1.017931  4.356117E-5 
514 6.5511 0.998198 -4.395174E-6 
515 -11.6418 0.994829 -1.266801E-5 
516 17.5586 0.995425 -1.125495E-5 
517 6.4365 1.007277  1.797554E-5 
518 -3.1569 1.009895  2.454522E-5 
519 -3.2715 1.007571  1.885947E-5 
520 -1.6281 1.015605  3.903424E-5 
521 4.3343 0.990219 -2.456846E-5 
522 6.5893 1.004620  1.165133E-5 
523 9.6470 1.004025  1.019254E-5 
524 17.7115 1.002022  5.143016E-6 
525 -18.3304 1.035561  9.080845E-5 
526 7.6213 1.009798  2.512394E-5 
527 -18.5215 0.982497 -4.506341E-5 
528 18.4759 1.001286  3.323886E-6 
529 7.3920 1.014132  3.668474E-5 
530 -3.1569 1.013222  3.446205E-5 
531 7.8888 1.004532  1.185990E-5 
532 -2.0867 1.013030  3.424136E-5 
533 -9.3104 1.009496  2.505421E-5 
534 7.4302 1.009878  2.616919E-5 
535 -11.7565 1.010227  2.720283E-5 
536 -2.6600 1.005560  1.484955E-5 
537 7.2773 0.989693 -2.763862E-5 
538 -12.4444 1.021626  5.822567E-5 
539 -3.2715 1.008616  2.329242E-5 
540 -1.3605 1.012606  3.421489E-5 
541 6.7804 1.007083  1.930246E-5 
542 -3.3480 1.009222  2.523153E-5 
543 -8.6224 1.014258  3.916751E-5 
544 6.1307 1.013313  3.671912E-5 
545 11.2140 1.003206  8.878800E-6 
546 -5.0297 1.022660  6.299842E-5 
547 -5.4883 1.021634  6.038505E-5 
548 -13.5528 1.008672  2.430188E-5 
549 -13.2471 0.991974 -2.258049E-5 
550 -13.5146 0.993714 -1.775462E-5 
551 5.9014 1.020045  5.684529E-5 
552 16.4884 1.025076  7.139101E-5 
553 -13.1324 0.999400 -1.716241E-6 
554 -12.9795 0.997722 -6.537670E-6 
555 9.4559 1.001583  4.559831E-6 
 2.890131  90.00  10.00 -0.00 0.09
  0 -0.1757 0.926532 -4.136627E-6 
  1 -1.0930 0.898818 -5.700877E-6 
  2 -10.3041 1.176470  9.952009E-6 
  3 0.3212 1.072520  4.094618E-6 
  4 -0.0228 1.065931  3.727966E-6 
  5 0.3594 1.074885  4.241432E-6 
  6 -0.3286 1.082840  4.701148E-6 
  7 -0.7108 1.069922  3.976805E-6 
  8 -0.5197 1.046395  2.645180E-6 
  9 -0.5197 1.060887  3.480837E-6 
 10 -0.5961 1.044016  2.523757E-6 
 11 -0.2521 1.036351  2.090966E-6 
 12 -0.4432 1.028767  1.660432E-6 
 13 -2.1631 1.042638  2.470148E-6 
 14 -1.2841 1.039657  2.306471E-6 
 15 -1.2458 1.018187  1.062191E-6 
 16 -1.9338 1.020481  1.201420E-6 
 17 -1.5516 1.020988  1.236871E-6 
 18 -3.5773 1.015984  9.465350E-7 
 19 -2.3160 1.033859  2.015323E-6 
 20 -7.9726 1.017190  1.028636E-6 
 21 -0.9019 1.001590  9.568794E-8 
 22 -0.9783 0.995346 -2.816244E-7 
 23 10.7554 0.994864 -3.126755E-7 
 24 -12.3298 1.016611  1.017486E-6 
 25 -4.1888 1.015463  9.531701E-7 
 26 -9.8072 1.000859  5.332884E-8 
 27 -1.9720 1.020713  1.293915E-6 
 28 9.5705 1.003772  2.372950E-7 
 29 18.2083 0.997563 -1.544020E-7 
 30 -9.5015 1.022684  1.447764E-6 
 31 8.8061 1.036719  2.361139E-6 
 32 8.0799 1.002292  1.485470E-7 
 33 -12.4062 1.006768  4.420466E-7 
 34 10.0292 1.020749  1.366030E-6 
 35 9.4941 1.011524  7.649529E-7 
 36 9.9910 1.009874  6.609184E-7 
 37 -9.9219 0.984026 -1.078298E-6 
 38 -8.0491 1.001553  1.057292E-7 
 39 12.8193 0.982025 -1.234725E-6 
 40 9.8381 1.017294  1.198630E-6 
 41 10.0292 0.997752 -1.572005E-7 
 42 -10.2659 1.005957  4.205046E-7 
 43 0.2065 0.999371 -4.480613E-8 
 44 8.3475 0.987858 -8.733885E-7 
 45 9.0354 1.007679  5.576733E-7 
 46 9.5323 1.009591  7.032929E-7 
 47 -9.4250 1.015771  1.167964E-6 
 48 -1.8956 1.026387  1.973611E-6 
 49 2.7673 1.024433  1.845890E-6 
 50 0.4741 1.002559  1.953391E-7 
 51 -7.8198 1.013301  1.025567E-6 
 52 8.2710 1.015314  1.193071E-6 
 53 -10.4952 0.989128 -8.558561E-7 
 54 13.2397 1.014700  1.169449E-6 
 55 -10.9538 1.012660  1.017850E-6 
 56 -3.2333 1.006704  5.447890E-7 
 57 -10.4188 0.990385 -7.898182E-7 
 58 4.6783 1.017001  1.411656E-6 
 59 5.2898 1.010092  8.472042E-7 
 60 -8.5842 0.994384 -4.765959E-7 
 61 -7.4376 0.999600 -3.436656E-8 
 62 -10.7245 1.004038  3.503414E-7 
 63 9.7616 1.007340  6.439592E-7 
 64 6.3218 0.995508 -3.985386E-7 
 65 7.6213 1.009085  8.152150E-7 
 66 13.0486 1.019402  1.760683E-6 
 67 -8.6606 0.998752 -1.145135E-7 
 68 9.9527 1.011706  1.086715E-6 
 69 13.9659 1.016897  1.586562E-6 
 70 7.7742 0.999368 -6.006556E-8 
 71 -0.0228 1.003548  3.408398E-7 
 72 8.6532 1.016214  1.575799E-6 
 73 -10.6481 1.007448  7.322507E-7 
 74 -4.3417 1.022785  2.266294E-6 
 75 3.5317 1.013597  1.368191E-6 
 76 16.3355 1.016996  1.730193E-6 
 77 11.9784 1.006373  6.563640E-7 
 78 -18.9801 1.019377  2.019111E-6 
 79 11.3669 1.008228  8.674783E-7 
 80 -0.9401 1.009094  9.700220E-7 
 81 -7.5522 1.015090  1.628599E-6 
 82 9.3794 1.010320  1.126836E-6 
 83 2.4233 0.998121 -2.075914E-7 
 84 -10.2276 1.017297  1.933591E-6 
 85 9.1119 1.024998  2.827494E-6 
 86 9.4941 1.006773  7.750750E-7 
 87 -8.7753 0.996579 -3.961727E-7 
 88 16.2209 1.011921  1.396730E-6 
 89 10.5643 1.000335  3.971956E-8 
 90 10.0674 1.024412  2.928288E-6 
 91 -10.8392 1.000923  1.120287E-7 
 92 9.3412 1.007490  9.197937E-7 
 93 -0.2521 1.008194  1.018107E-6 
 94 12.2077 0.995904 -5.149157E-7 
 95 10.8700 1.023710  3.015900E-6 
 96 9.4941 0.999297 -9.043243E-8 
 97 8.8061 1.008275  1.077480E-6 
 98 8.9972 1.026568  3.500093E-6 
 99 8.3093 1.003536  4.712941E-7 
100 9.7616 0.984580 -2.079418E-6 
101 10.3349 1.007598  1.036547E-6 
102 9.1883 1.018696  2.580521E-6 
103 -10.4952 0.991409 -1.199652E-6 
104 4.6783 1.041075  5.802689E-6 
105 9.1501 0.991699 -1.186328E-6 
106 9.6852 1.006049  8.745635E-7 
107 -8.6606 0.992335 -1.121075E-6 
108 17.9790 1.011572  1.712162E-6 
109 9.4941 1.012243  1.832386E-6 
110 -10.1130 1.004217  6.384575E-7 
111 8.8443 1.022002  3.369281E-6 
112 10.8700 1.006451  9.992924E-7 
113 8.7297 1.002451  3.839639E-7 
114 -8.8135 1.021713  3.440808E-6 
115 -11.2214 1.013534  2.169164E-6 
116 -9.1575 1.005428  8.799428E-7 
117 -1.2458 1.014842  2.433437E-6 
118 4.9841 1.007982  1.323541E-6 
119 12.2842 1.001010  1.693720E-7 
120 -9.4250 1.027087  4.593471E-6 
121 8.3857 1.004602  7.891974E-7 
122 15.9533 1.025850  4.482954E-6 
123 8.0035 1.000395  6.928748E-8 
124 10.6407 1.010803  1.915777E-6 
125 8.4239 0.989826 -1.824347E-6 
126 18.2848 0.998993 -1.826611E-7 
127 9.0737 1.005654  1.036523E-6 
128 10.0292 1.016600  3.076677E-6 
129 -10.8010 1.004705  8.817443E-7 
130 -9.7690 0.992016 -1.512592E-6 
131 11.5198 0.993984 -1.152326E-6 
132 10.4878 0.997039 -5.733208E-7 
133 10.1438 0.997845 -4.218974E-7 
134 16.4502 1.012259  2.425703E-6 
135 8.9208 0.997903 -4.195161E-7 
136 9.0737 1.014485  2.928603E-6 
137 -9.8454 1.005685  1.161908E-6 
138 -10.1894 1.005515  1.139315E-6 
139 1.8500 1.012282  2.564392E-6 
140 9.7616 1.009708  2.048518E-6 
141 -9.7308 1.009849  2.100460E-6 
142 -8.1255 1.009541  2.056431E-6 
143 -9.9219 0.996987 -6.562866E-7 
144 -9.9983 0.992561 -1.637559E-6 
145 -10.8774 0.991774 -1.829912E-6 
146 -1.3605 0.994584 -1.217493E-6 
147 -9.9601 0.980009 -4.540543E-6 
148 -11.9093 1.008790  2.017441E-6 
149 9.0737 1.027792  6.444779E-6 
150 -9.2339 1.001919  4.496569E-7 
151 -12.2916 1.024405  5.777177E-6 
152 6.8569 1.009591  2.293793E-6 
153 10.4496 1.012541  3.030081E-6 
154 -1.0547 1.029703  7.250480E-6 
155 -10.4188 1.007647  1.885759E-6 
156 9.2648 1.009766  2.432795E-6 
157 -0.7108 1.020470  5.150785E-6 
158 0.0919 1.008044  2.044603E-6 
159 8.5386 1.007591  1.948860E-6 
160 -10.3041 1.021268  5.515186E-6 
161 15.6476 1.000203  5.305901E-8 
162 -10.8392 1.014885  3.937463E-6 
163 9.5705 1.002469  6.596723E-7 
164 8.7679 1.006383  1.722340E-6 
165 -0.4432 0.999428 -1.558632E-7 
166 10.7171 1.006616  1.820491E-6 
167 6.9715 1.017982  4.996581E-6 
168 4.0668 0.980270 -5.536004E-6 
169 2.8055 1.007297  2.067550E-6 
170 -10.2276 0.988957 -3.159239E-6 
171 -10.4952 1.000600  1.733839E-7 
172 7.3920 1.008189  2.388514E-6 
173 -1.1312 1.003414  1.005440E-6 
174 -9.5397 1.007997  2.377583E-6 
175 8.8826 1.007909  2.373867E-6 
176 -18.7508 0.996705 -9.984163E-7 
177 11.5962 1.006247  1.910825E-6 
178 -9.4250 1.004360  1.346177E-6 
179 10.8700 1.008602  2.681205E-6 
180 -10.5334 1.010820  3.404510E-6 
181 -10.2276 0.996694 -1.049847E-6 
182 -0.3668 1.009029  2.894300E-6 
183 8.3857 0.990525 -3.065731E-6 
184 9.1501 1.005058  1.651720E-6 
185 -10.3423 0.984044 -5.258985E-6 
186 -1.2458 1.004100  1.363898E-6 
187 9.5705 1.006151  2.064798E-6 
188 8.9208 1.014151  4.793822E-6 
189 8.7679 1.022170  7.579089E-6 
190 -17.6424 1.018596  6.415326E-6 
191 12.0931 0.998733 -4.410245E-7 
192 -1.1694 0.998559 -5.062027E-7 
193 7.4302 1.022765  8.068758E-6 
194 10.6789 0.994907 -1.821427E-6 
195 10.1056 1.019227  6.938021E-6 
196 9.7999 0.988999 -4.004943E-6 
197 11.2905 1.010636  3.906610E-6 
198 8.6915 1.003625  1.343282E-6 
199 -7.9726 1.004990  1.865628E-6 
200 10.1438 1.001893  7.138548E-7 
201 11.2905 1.018803  7.154095E-6 
202 -7.8198 0.998864 -4.360582E-7 
203 9.7234 1.010690  4.138738E-6 
204 -9.2721 1.024653  9.627926E-6 
205 -7.3993 0.995475 -1.782385E-6 
206 14.8067 0.990512 -3.769735E-6 
207 18.3995 1.014263  5.716232E-6 
208 9.5705 1.029143  1.177967E-5 
209 12.8957 1.021838  8.902833E-6 
210 -11.9476 1.006553  2.694282E-6 
211 10.8700 1.010327  4.282127E-6 
212 10.3732 1.008577  3.586881E-6 
213 9.6470 1.017134  7.225631E-6 
214 9.4177 1.008538  3.631176E-6 
215 -10.9156 1.004283  1.836963E-6 
216 16.7942 0.987082 -5.586415E-6 
217 -10.9921 0.992353 -3.334754E-6 
218 8.2710 1.036773  1.616921E-5 
219 -9.6543 0.994947 -2.240407E-6 
220 -8.5460 1.000096  4.270066E-8 
221 10.1056 1.014319  6.453825E-6 
222 -9.3868 1.013453  6.113300E-6 
223 -0.9401 1.024972  1.144077E-5 
224 9.7999 0.995865 -1.910016E-6 
225 -10.3041 0.999724 -1.286649E-7 
226 18.8963 0.992884 -3.340437E-6 
227 9.8381 1.003601  1.704276E-6 
228 -11.1832 0.997821 -1.039748E-6 
229 -9.8072 0.998059 -9.335140E-7 
230 -9.0810 0.985640 -6.961369E-6 
231 1.5825 1.002746  1.341676E-6 
232 9.7999 1.042602  2.098356E-5 
233 18.2083 1.004468  2.218033E-6 
234 -9.9219 1.009561  4.784447E-6 
235 7.2391 1.008694  4.384684E-6 
236 12.9721 0.982598 -8.846159E-6 
237 11.6344 1.001441  7.381881E-7 
238 -2.7364 1.014464  7.468421E-6 
239 -11.4125 1.018999  9.886466E-6 
240 9.5705 1.001164  6.104653E-7 
241 10.4878 1.001642  8.679610E-7 
242 11.4051 1.002790  1.486115E-6 
243 -10.4188 1.000111  5.951061E-8 
244 9.8763 1.000739  3.995205E-7 
245 7.5066 1.005267  2.870175E-6 
246 9.3794 1.008299  4.557582E-6 
247 15.7622 1.008737  4.834489E-6 
248 7.9271 1.013362  7.449782E-6 
249 -9.7308 0.994534 -3.070405E-6 
250 -12.4444 1.005856  3.314380E-6 
251 8.5004 0.985524 -8.255328E-6 
252 6.5893 1.012607  7.243176E-6 
253 -0.8636 1.004973  2.878959E-6 
254 -0.8254 1.013984  8.155406E-6 
255 -12.1387 1.004741  2.785621E-6 
256 -9.3868 1.021547  1.275327E-5 
257 9.3412 0.991444 -5.101989E-6 
258 -1.0930 1.002159  1.297130E-6 
259 -0.0610 0.991734 -5.001451E-6 
260 11.1758 1.018173  1.107691E-5 
261 -8.8517 1.010537  6.469761E-6 
262 17.3675 0.998780 -7.545194E-7 
263 9.9527 1.012179  7.587562E-6 
264 -13.0560 1.006163  3.866974E-6 
265 17.7879 0.983431 -1.047239E-5 
266 -10.6481 0.988202 -7.510691E-6 
267 10.4878 1.007495  4.805720E-6 
268 -10.8010 0.990238 -6.304145E-6 
269 -1.0165 1.005315  3.456731E-6 
270 2.9584 1.010505  6.880834E-6 
271 12.4371 1.008156  5.380599E-6 
272 -10.7245 0.991572 -5.599448E-6 
273 7.8888 1.018372  1.229200E-5 
274 9.3030 0.991808 -5.519504E-6 
275 -16.6869 1.035279  2.393764E-5 
276 6.9333 1.010439  7.132581E-6 
277 19.0110 0.994187 -3.999642E-6 
278 -4.1888 1.022729  1.574806E-5 
279 8.9590 1.001151  8.030319E-7 
280 0.2065 1.006173  4.336925E-6 
281 8.7679 1.015481  1.095117E-5 
282 8.4239 0.995947 -2.886893E-6 
283 5.6720 0.999743 -1.839675E-7 
284 7.5831 1.020569  1.485226E-5 
285 10.3732 1.018346  1.333815E-5 
286 10.1438 1.006790  4.970032E-6 
287 0.4358 0.995342 -3.432881E-6 
288 8.5004 1.005887  4.367823E-6 
289 13.6219 1.016872  1.260308E-5 
290 10.0292 1.007716  5.802556E-6 
291 5.6338 1.008393  6.354639E-6 
292 7.7742 1.010081  7.683352E-6 
293 5.7103 1.011324  8.688345E-6 
294 17.0235 1.020847  1.610194E-5 
295 4.1815 1.004324  3.362107E-6 
296 11.5580 1.011228  8.788421E-6 
297 -19.4388 0.995118 -3.846393E-6 
298 9.5705 1.011019  8.739346E-6 
299 -5.1443 1.003115  2.486655E-6 
300 -8.8899 1.014395  1.156777E-5 
301 8.9208 0.998961 -8.400759E-7 
302 9.4941 1.003251  2.646977E-6 
303 6.6658 1.004412  3.615328E-6 
304 9.0354 1.026955  2.223202E-5 
305 8.2710 1.004982  4.135823E-6 
306 10.1438 1.012993  1.085520E-5 
307 -0.7108 1.002079  1.748533E-6 
308 9.4941 1.016826  1.423962E-5 
309 10.9465 1.001261  1.073735E-6 
310 8.3093 1.013763  1.179709E-5 
311 -8.5842 0.985122 -1.283463E-5 
312 9.6852 0.986969 -1.131248E-5 
313 15.4947 1.009033  7.891465E-6 
314 15.8005 0.996965 -2.668338E-6 
315 3.1877 1.013068  1.156192E-5 
316 -2.2396 0.996918 -2.744396E-6 
317 -7.0936 1.012644  1.132792E-5 
318 -10.6863 0.983363 -1.499964E-5 
319 -10.4570 1.015087  1.368675E-5 
320 9.7616 1.020272  1.850574E-5 
321 9.4559 1.026108  2.398182E-5 
322 -11.3743 1.019855  1.835100E-5 
323 -10.7245 1.000446  4.149441E-7 
324 10.1438 1.012339  1.154607E-5 
325 12.7046 1.020848  1.962822E-5 
326 8.1946 1.017718  1.678388E-5 
327 16.8706 1.021143  2.015106E-5 
328 -0.5961 0.979864 -1.930857E-5 
329 10.3349 1.023372  2.254861E-5 
330 8.8826 1.003588  3.482504E-6 
331 9.3030 0.999859 -1.372628E-7 
332 9.0354 1.022322  2.193031E-5 
333 -10.1894 1.010627  1.050403E-5 
334 18.0172 1.019409  1.929988E-5 
335 6.8187 0.974067 -2.594259E-5 
336 8.1564 1.014820  1.491467E-5 
337 12.2460 0.988400 -1.174376E-5 
338 -0.2903 1.023517  2.395009E-5 
339 -10.5716 1.004560  4.671897E-6 
340 -1.1312 1.007649  7.883255E-6 
341 -0.9401 0.996903 -3.210523E-6 
342 6.6658 1.013999  1.459897E-5 
343 -7.8198 0.998341 -1.739985E-6 
344 -10.0748 1.052457  5.534995E-5 
345 8.6915 1.004422  4.693238E-6 
346 15.8005 1.019094  2.038440E-5 
347 -10.5334 1.021323  2.289637E-5 
348 17.8261 1.019021  2.054363E-5 
349 9.2265 0.992042 -8.645723E-6 
350 -10.0748 1.024216  2.646015E-5 
351 -19.9739 0.981586 -2.023708E-5 
352 -1.3223 1.013842  1.530011E-5 
353 -11.9858 1.002433  2.704857E-6 
354 16.0680 1.019620  2.193675E-5 
355 0.6652 1.004100  4.609999E-6 
356 -11.9858 0.996565 -3.884670E-6 
357 16.4884 1.018652  2.121480E-5 
358 9.4559 1.011328  1.295774E-5 
359 11.3287 1.017084  1.965361E-5 
360 6.9715 0.985326 -1.697619E-5 
361 -10.8774 1.014324  1.666514E-5 
362 8.1564 0.994893 -5.975586E-6 
363 -8.8135 1.022751  2.676987E-5 
364 10.3349 0.998601 -1.655163E-6 
365 9.9145 1.002842  3.381194E-6 
366 -9.5015 0.996535 -4.145621E-6 
367 9.3794 1.015944  1.918336E-5 
368 -0.6725 1.024087  2.914329E-5 
369 -0.4050 1.016082  1.956646E-5 
370 -10.9921 1.017841  2.182673E-5 
371 -10.2276 0.985335 -1.803990E-5 
372 18.2848 1.009064  1.121149E-5 
373 -10.6099 1.036820  4.579510E-5 
374 9.1119 0.990443 -1.195181E-5 
375 -9.9219 1.005961  7.495871E-6 
376 9.2648 0.991761 -1.041652E-5 
377 -9.2721 1.013653  1.735543E-5 
378 -10.1130 1.012320  1.574642E-5 
379 0.0154 1.022781  2.927589E-5 
380 -9.7690 0.975233 -3.200059E-5 
381 -8.2784 1.018399  2.390144E-5 
382 9.8381 1.011581  1.512541E-5 
383 -12.2151 0.999695 -4.004139E-7 
384 8.0417 0.991909 -1.068152E-5 
385 0.8181 1.015725  2.087108E-5 
386 15.6476 1.020205  2.696087E-5 
387 0.9327 0.996856 -4.217550E-6 
388 -9.2339 0.998296 -2.298647E-6 
389 9.1501 1.011390  1.544302E-5 
390 11.0993 1.001707  2.326605E-6 
391 8.8826 1.015425  2.113555E-5 
392 7.0480 0.987333 -1.744851E-5 
393 -9.4250 1.012952  1.793550E-5 
394 8.1182 1.010355  1.441388E-5 
395 11.6344 1.004967  6.950504E-6 
396 8.7679 1.001878  2.641864E-6 
397 -8.2402 0.996076 -5.548653E-6 
398 17.5968 1.020372  2.895573E-5 
399 0.3976 1.014043  2.006491E-5 
400 10.2203 1.011133  1.598978E-5 
401 9.3412 1.011535  1.665192E-5 
402 17.2528 1.009878  1.433466E-5 
403 -8.9664 1.019732  2.878201E-5 
404 8.1564 0.988406 -1.699771E-5 
405 12.3988 0.998237 -2.598784E-6 
406 10.2967 1.009133  1.352762E-5 
407 9.7616 0.985893 -2.100294E-5 
408 -16.4958 1.022500  3.367030E-5 
409 5.7867 1.008641  1.299689E-5 
410 -11.2978 1.016931  2.559536E-5 
411 -8.6988 1.016250  2.468956E-5 
412 8.3475 0.988061 -1.823126E-5 
413 7.9653 0.999589 -6.304135E-7 
414 10.6407 1.008012  1.235837E-5 
415 -10.8392 0.993540 -1.001486E-5 
416 10.2585 1.013231  2.061562E-5 
417 -12.3680 1.014562  2.280341E-5 
418 -10.4188 0.992967 -1.106828E-5 
419 -9.7308 1.007252  1.146955E-5 
420 -5.2208 1.006059  9.630920E-6 
421 10.5260 1.010687  1.707212E-5 
422 -8.9282 1.030285  4.861990E-5 
423 -5.0679 1.005353  8.636696E-6 
424 16.2591 1.000961  1.558825E-6 
425 8.9208 1.030380  4.949934E-5 
426 9.4177 1.030905  5.060254E-5 
427 -12.3680 1.002228  3.666803E-6 
428 10.2203 1.012626  2.087743E-5 
429 11.0611 0.976040 -3.981127E-5 
430 -10.4952 1.021129  3.527987E-5 
431 9.9527 1.001008  1.691867E-6 
432 -3.5773 1.027300  4.602846E-5 
433 -10.2276 1.002588  4.384997E-6 
434 -10.4570 1.020941  3.565158E-5 
435 -10.1130 0.995427 -7.822930E-6 
436 -9.5397 1.014689  2.525034E-5 
437 -1.7427 1.001863  3.218747E-6 
438 2.1175 1.022075  3.831315E-5 
439 -11.6036 0.997184 -4.911622E-6 
440 -13.1706 0.999114 -1.553277E-6 
441 1.0092 1.022893  4.030658E-5 
442 8.1946 0.991873 -1.437688E-5 
443 10.6789 1.018691  3.322333E-5 
444 -11.6800 1.019333  3.452777E-5 
445 -9.4632 0.985599 -2.584160E-5 
446 -9.1575 1.012121  2.185452E-5 
447 6.0160 1.030733  5.567349E-5 
448 -10.0365 0.996824 -5.780973E-6 
449 -10.2659 1.016953  3.100155E-5 
450 9.2648 0.995569 -8.140986E-6 
451 -1.6281 0.993529 -1.194484E-5 
452 8.5768 1.010622  1.969819E-5 
453 7.3920 0.993114 -1.282923E-5 
454 2.4998 0.993673 -1.184407E-5 
455 -10.1512 0.988795 -2.107299E-5 
456 -9.2721 0.997484 -4.752832E-6 
457 2.3851 1.000840  1.594960E-6 
458 7.8124 1.002613  4.982724E-6 
459 -8.9664 0.997386 -5.008011E-6 
460 9.6470 1.017629  3.393004E-5 
461 -11.3743 0.987060 -2.501959E-5 
462 8.8826 0.999657 -6.658672E-7 
463 9.6088 1.016323  3.185105E-5 
464 7.6213 0.996237 -7.377240E-6 
465 0.4741 1.017280  3.402770E-5 
466 -11.3743 1.007267  1.437546E-5 
467 17.1382 1.015950  3.169639E-5 
468 -2.5071 1.023306  4.652652E-5 
469 -9.8454 0.999468 -1.067320E-6 
470 15.5711 1.018801  3.787333E-5 
471 13.0486 1.016643  3.367801E-5 
472 -10.5716 1.004155  8.446555E-6 
473 -10.6863 1.022662  4.627316E-5 
474 10.7936 1.010037  2.058753E-5 
475 -11.9093 1.004478  9.225945E-6 
476 -11.3743 1.006991  1.446840E-5 
477 7.5448 0.999661 -7.055783E-7 
478 11.2140 1.018209  3.802204E-5 
479 9.6470 1.022500  4.719225E-5 
480 10.2203 0.992351 -1.611513E-5 
481 12.9721 1.001657  3.505423E-6 
482 -9.6926 0.986696 -2.827740E-5 
483 16.2209 1.008806  1.880001E-5 
484 -17.7571 0.980363 -4.210867E-5 
485 -11.2596 1.030261  6.517896E-5 
486 8.5768 1.015602  3.375351E-5 
487 -10.5334 0.998909 -2.370553E-6 
488 -8.8135 0.999407 -1.295246E-6 
489 -8.1637 1.013550  2.970100E-5 
490 17.4057 1.010357  2.280222E-5 
491 -9.0046 1.021994  4.863376E-5 
492 -15.3110 0.995193 -1.067653E-5 
493 8.7679 1.017220  3.840896E-5 
494 -9.6926 1.026877  6.021039E-5 
495 9.2648 1.020114  4.525562E-5 
496 10.7554 1.005555  1.255177E-5 
497 -13.0177 1.001276  2.896646E-6 
498 16.9853 1.016822  3.834220E-5 
499 7.7742 1.024259  5.553102E-5 
500 -10.7627 1.010837  2.491398E-5 
501 9.9910 1.022762  5.255306E-5 
502 9.9910 1.007058  1.636473E-5 
503 -1.2076 1.032460  7.558743E-5 
504 -14.1261 1.021194  4.956340E-5 
505 0.0154 0.998505 -3.510656E-6 
506 -9.1957 0.999364 -1.500574E-6 
507 9.2648 0.994930 -1.200847E-5 
508 -1.0165 1.009911  2.357563E-5 
509 5.6338 0.981888 -4.326513E-5 
510 9.5323 1.003260  7.821071E-6 
511 9.6852 1.000427  1.029809E-6 
512 8.5768 1.024305  5.879665E-5 
513 -9.8837 0.988760 -2.730590E-5 
514 -10.0748 1.015763  3.845516E-5 
515 9.0354 0.989206 -2.644221E-5 
516 17.8644 1.014304  3.518884E-5 
517 -9.5779 1.001361  3.360978E-6 
518 9.0737 1.008676  2.152107E-5 
519 -10.5334 1.001356  3.377722E-6 
520 -10.6099 1.027338  6.838214E-5 
521 9.0354 0.998545 -3.654089E-6 
522 -10.3805 0.991542 -2.133146E-5 
523 -10.6099 1.005456  1.381918E-5 
524 7.3155 1.019277  4.902326E-5 
525 10.2585 1.008927  2.279614E-5 
526 -11.7947 1.009611  2.464242E-5 
527 18.6288 1.000433  1.114140E-6 
528 -0.2139 1.015855  4.098907E-5 
529 1.0474 1.015214  3.949234E-5 
530 9.4941 0.988344 -3.037996E-5 
531 6.8569 0.996376 -9.485746E-6 
532 9.1119 1.006609  1.736638E-5 
533 9.1119 1.013011  3.432946E-5 
534 0.3212 1.024948  6.609251E-5 
535 -10.1512 1.016076  4.276320E-5 
536 17.8261 1.003122  8.337477E-6 
537 -0.2903 0.992791 -1.933073E-5 
538 -10.9538 0.996436 -9.597128E-6 
539 -11.4507 1.000279  7.554089E-7 
540 -8.6606 1.019346  5.251006E-5 
541 9.3412 0.986486 -3.682654E-5 
542 -11.0303 0.998290 -4.678270E-6 
543 -9.1957 1.008321  2.285712E-5 
544 -10.2659 0.998669 -3.671540E-6 
545 0.6652 1.004976  1.377898E-5 
546 -10.8774 1.014126  3.927279E-5 
547 -17.9864 1.014913  4.162477E-5 
548 8.6532 1.009511  2.665285E-5 
549 10.3349 0.983254 -4.711381E-5 
550 -10.6481 0.994855 -1.453277E-5 
551 6.8951 1.000300  8.515638E-7 
552 10.1056 1.021582  6.144535E-5 
553 -2.1249 1.000420  1.199074E-6 
554 -10.1130 1.002498  7.168896E-6 
555 0.3212 0.999111 -2.561249E-6 
