Filename:	Wind_Profile_100_20181024_043019.hpl
System ID:	100
Number of gates:	556
Range gate length (m):	18.0
Gate length (pts):	6
Pulses/ray:	1500
No. of rays in file:	3
Scan type:	Wind profile
Focus range:	65535
Start time:	20181024 04:30:26.44
Resolution (m/s):	0.0382
Altitude of measurement (center of gate) = (range gate + 0.5) * Gate length
Data line 1: Decimal time (hours)  Azimuth (degrees)  Elevation (degrees) Pitch (degrees) Roll (degrees)
f9.6,1x,f6.2,1x,f6.2
Data line 2: Range Gate  Doppler (m/s)  Intensity (SNR + 1)  Beta (m-1 sr-1)
i3,1x,f6.4,1x,f8.6,1x,e12.6 - repeat for no. gates
****
 4.507317  91.00  90.00 -0.00 0.09
  0 -0.0610 0.839966 -9.010683E-6
  1 -1.2076 0.838325 -9.109198E-6
  2 -6.4438 1.042898  2.419217E-6
  3 0.5887 1.033467  1.889594E-6
  4 1.7736 1.009466  5.352575E-7
  5 9.9527 1.027589  1.562589E-6
  6 -0.6725 1.045164  2.563027E-6
  7 -3.4626 1.013699  7.791339E-7
  8 -6.7878 1.007627  4.348464E-7
  9 0.7416 1.026907  1.538232E-6
 10 -0.5579 1.033599  1.926470E-6
 11 -2.9658 0.997894 -1.211383E-7
 12 17.3675 1.032571  1.879976E-6
 13 17.3293 1.010342  5.991568E-7
 14 -0.4814 1.017242  1.002827E-6
 15 16.8706 1.014878  8.689262E-7
 16 1.7353 1.001416  8.308834E-8
 17 -2.5836 1.036291  2.138743E-6
 18 -2.9275 1.007075  4.189539E-7
 19 0.4741 1.023653  1.407861E-6
 20 -2.5071 1.045850  2.743566E-6
 21 -0.1757 1.030186  1.816279E-6
 22 0.5505 1.016269  9.845466E-7
 23 -1.3223 1.048010  2.922660E-6
 24 -0.3286 1.032297  1.978230E-6
 25 -0.2903 1.013913  8.576096E-7
 26 -1.2458 1.025464  1.579986E-6
 27 18.7434 1.012314  7.692724E-7
 28 -1.4752 1.031399  1.975196E-6
 29 14.9596 0.993727 -3.974561E-7
 30 0.4741 1.036294  2.316326E-6
 31 0.7416 1.010325  6.639308E-7
 32 -6.2527 1.002526  1.636999E-7
 33 -2.5836 1.019062  1.244913E-6
 34 14.8832 1.000828  5.454200E-8
 35 -3.9595 1.013743  9.122411E-7
 36 -5.8705 1.020708  1.386065E-6
 37 18.7052 1.029523  1.992927E-6
 38 -15.0816 0.998069 -1.314696E-7
 39 -18.9419 1.023126  1.588568E-6
 40 17.9790 1.009915  6.872137E-7
 41 -5.6794 1.012737  8.908596E-7
 42 1.1620 1.000796  5.620893E-8
 43 18.2083 1.028730  2.047046E-6
 44 -18.2157 1.032129  2.311013E-6
 45 2.8437 1.022328  1.621509E-6
 46 16.8706 1.009293  6.814681E-7
 47 -19.5917 0.999107 -6.613705E-8
 48 1.1620 1.023258  1.739583E-6
 49 -4.1888 1.022260  1.681755E-6
 50 -3.1187 1.036111  2.755986E-6
 51 0.0919 1.031257  2.410097E-6
 52 17.8261 1.024496  1.908346E-6
 53 17.8261 1.002616  2.059316E-7
 54 -5.4119 1.017839  1.419151E-6
 55 6.2454 0.999971 -2.298253E-9
 56 -2.8129 1.031053  2.523455E-6
 57 18.2083 1.025908  2.128103E-6
 58 -18.7890 1.000154  1.275768E-8
 59 -19.7828 1.010035  8.424100E-7
 60 -3.7302 1.014338  1.216893E-6
 61 2.6909 1.002111  1.811461E-7
 62 3.7610 1.015947  1.383626E-6
 63 -6.5203 1.006468  5.674574E-7
 64 -1.4370 0.993519 -5.750245E-7
 65 18.5141 1.007039  6.315576E-7
 66 11.0611 1.038587  3.501670E-6
 67 5.3663 1.030513  2.800480E-6
 68 -17.7189 1.014615  1.356711E-6
 69 18.5141 1.023945  2.248325E-6
 70 -3.9977 1.009138  8.678695E-7
 71 -7.0554 1.018292  1.757387E-6
 72 -5.7559 1.013260  1.288704E-6
 73 -5.2590 1.027949  2.747894E-6
 74 14.9214 1.019205  1.910232E-6
 75 14.7685 1.034187  3.440036E-6
 76 -6.5585 1.006842  6.965239E-7
 77 -6.9025 1.014554  1.498995E-6
 78 17.5968 1.008868  9.240673E-7
 79 -7.2465 1.007731  8.150948E-7
 80 -4.8386 1.000657  7.003162E-8
 81 2.2704 1.020928  2.258597E-6
 82 -4.5328 0.986696 -1.452711E-6
 83 -6.2909 1.010907  1.205074E-6
 84 -19.4006 1.015350  1.715935E-6
 85 18.0555 1.012475  1.410962E-6
 86 18.1701 1.017350  1.985554E-6
 87 -5.2590 1.008428  9.759464E-7
 88 18.5906 1.013360  1.565347E-6
 89 -6.4820 0.990755 -1.096011E-6
 90 -6.6349 1.007499  8.995397E-7
 91 17.4057 1.002050  2.487454E-7
 92 16.3738 1.014249  1.749764E-6
 93 18.2466 1.021981  2.731105E-6
 94 17.4057 1.012064  1.516693E-6
 95 -6.0616 1.017414  2.215094E-6
 96 -19.6681 1.020246  2.605565E-6
 97 17.2911 1.002695  3.509563E-7
 98 -18.1011 1.013615  1.793691E-6
 99 -15.2727 0.996241 -5.010277E-7
100 2.1940 1.003763  5.074857E-7
101 -4.8003 1.004228  5.768100E-7
102 -5.2590 1.008502  1.173537E-6
103 17.7115 1.006788  9.478573E-7
104 17.2146 0.998899 -1.554808E-7
105 -6.3674 1.004359  6.230415E-7
106 18.5906 1.001333  1.927163E-7
107 -9.9219 1.018901  2.764366E-6
108 17.2911 1.015476  2.289758E-6
109 -1.9338 1.017616  2.636521E-6
110 18.1319 1.018624  2.819517E-6
111 -16.9927 1.011859  1.816060E-6
112 18.0172 1.015189  2.352714E-6
113 -1.6281 1.013409  2.100838E-6
114 14.9596 1.004261  6.752460E-7
115 16.4502 1.004495  7.204366E-7
116 -18.7508 1.011397  1.847545E-6
117 -6.9407 1.008476  1.389606E-6
118 19.0492 1.017053  2.827617E-6
119 -15.3874 1.006366  1.067577E-6
120 16.5266 0.996788 -5.446552E-7
121 18.8963 0.999802 -3.393042E-8
122 3.5699 1.024030  4.167349E-6
123 16.8324 1.013101  2.297469E-6
124 -6.1763 1.026722  4.738693E-6
125 -5.1826 1.009898  1.774778E-6
126 17.4822 0.996844 -5.721074E-7
127 17.9790 0.995047 -9.079412E-7
128 -8.9664 1.008873  1.644597E-6
129 17.2528 1.013237  2.480559E-6
130 15.1125 0.979662 -3.853112E-6
131 18.2466 1.020535  3.933175E-6
132 18.4377 0.998177 -3.530717E-7
133 16.6031 1.020511  4.014904E-6
134 -18.7126 1.007872  1.557663E-6
135 17.9408 1.013687  2.737672E-6
136 -8.8135 1.014110  2.852815E-6
137 15.2654 1.033133  6.771292E-6
138 -7.4376 1.000924  1.908333E-7
139 2.0793 1.018590  3.881400E-6
140 -19.7828 1.013671  2.884779E-6
141 -16.8016 1.007119  1.518271E-6
142 -7.7433 1.016691  3.597467E-6
143 18.3230 1.018343  3.995426E-6
144 -7.3229 1.007868  1.731870E-6
145 15.6476 0.993228 -1.506425E-6
146 18.3612 0.985974 -3.152664E-6
147 -6.4056 0.986976 -2.958260E-6
148 17.6350 1.004433  1.017497E-6
149 -5.1061 1.043256  1.003085E-5
150 16.9471 1.009000  2.108603E-6
151 -6.7114 1.018245  4.318984E-6
152 -19.7445 1.004901  1.172210E-6
153 17.9408 1.021777  5.261768E-6
154 19.0110 1.018899  4.613293E-6
155 -5.6030 0.988262 -2.894569E-6
156 -4.9915 1.006424  1.600174E-6
157 -4.7621 0.985823 -3.567290E-6
158 18.1701 0.993772 -1.582904E-6
159 -6.2909 1.008370  2.148957E-6
160 -18.6744 1.024908  6.459079E-6
161 17.9026 0.982142 -4.677204E-6
162 18.0555 1.016050  4.245720E-6
163 -6.1763 1.008218  2.195561E-6
164 17.6733 1.013601  3.669624E-6
165 -7.0171 1.008165  2.224824E-6
166 -14.7377 1.016689  4.592174E-6
167 15.9151 1.009542  2.651584E-6
168 -5.9852 1.013530  3.796324E-6
169 -2.7364 1.012053  3.415033E-6
170 17.7879 1.000349  9.995525E-8
171 2.3469 0.993928 -1.753985E-6
172 17.5586 1.015189  4.430012E-6
173 -5.5265 1.012247  3.606189E-6
174 12.9339 0.991826 -2.430036E-6
175 -4.6475 1.008266  2.480970E-6
176 4.0668 1.007081  2.145678E-6
177 3.7992 1.014132  4.322826E-6
178 -6.0616 0.998460 -4.753935E-7
179 5.4809 1.010252  3.195468E-6
180 15.3800 1.023985  7.546585E-6
181 -16.5340 1.015543  4.936241E-6
182 14.8450 1.013098  4.198875E-6
183 17.9026 1.018763  6.070695E-6
184 16.3738 1.003224  1.052989E-6
185 18.8581 1.014500  4.778859E-6
186 4.1050 0.995129 -1.620263E-6
187 -6.4056 1.010524  3.532898E-6
188 -19.9739 1.018906  6.404756E-6
189 3.5699 0.996886 -1.064686E-6
190 17.8644 1.006720  2.318136E-6
191 18.2083 1.012800  4.455771E-6
192 18.2848 1.001132  3.977733E-7
193 -15.1963 1.023186  8.218094E-6
194 16.9089 0.997967 -7.270738E-7
195 16.2591 1.031802  1.147529E-5
196 17.6733 1.001196  4.355228E-7
197 19.0492 0.992556 -2.734368E-6
198 -6.7878 1.009546  3.537351E-6
199 -5.4501 1.015243  5.698754E-6
200 -6.3674 0.997492 -9.459945E-7
201 16.0680 0.997784 -8.432821E-7
202 -9.2721 1.035487  1.362020E-5
203 17.4057 1.002933  1.135671E-6
204 -18.5215 1.007801  3.046567E-6
205 14.9978 1.011053  4.353981E-6
206 -6.4438 1.002296  9.122534E-7
207 -7.4758 0.997153 -1.141085E-6
208 17.1000 1.013801  5.578315E-6
209 -5.6030 0.995731 -1.740369E-6
210 5.2898 0.997774 -9.151208E-7
211 6.1689 0.996624 -1.399856E-6
212 15.0743 0.995826 -1.745293E-6
213 -6.7878 1.002802  1.181732E-6
214 -18.2922 1.006745  2.868379E-6
215 16.9089 1.002899  1.243298E-6
216 -7.6287 1.006231  2.694455E-6
217 -7.2847 0.999810 -8.300929E-8
218 14.8450 1.025347  1.114519E-5
219 18.3995 1.019259  8.538607E-6
220 -4.6857 1.001494  6.680346E-7
221 6.7804 1.004703  2.119536E-6
222 17.1764 1.026696  1.213143E-5
223 -19.9356 1.036884  1.689842E-5
224 -12.2151 1.014174  6.546795E-6
225 17.1764 1.002598  1.209940E-6
226 -8.3548 0.999664 -1.575011E-7
227 18.9728 1.016725  7.915043E-6
228 -4.7239 1.008092  3.860357E-6
229 -1.7809 0.992870 -3.429160E-6
230 18.8963 1.034664  1.680446E-5
231 -10.7627 1.023804  1.163200E-5
232 18.4759 1.028621  1.409738E-5
233 17.1764 0.992175 -3.884957E-6
234 17.5586 1.012195  6.102265E-6
235 -14.6612 1.015434  7.784255E-6
236 -6.7496 1.001237  6.287563E-7
237 16.7560 0.999395 -3.100100E-7
238 -6.7114 0.990099 -5.112494E-6
239 5.0605 1.013368  6.956602E-6
240 -19.8974 0.997858 -1.123566E-6
241 15.8387 1.006545  3.459111E-6
242 15.5329 0.994523 -2.917244E-6
243 2.0793 1.013453  7.220139E-6
244 15.0743 0.987870 -6.560271E-6
245 0.5123 1.035307  1.924165E-5
246 -19.4006 1.016763  9.205507E-6
247 16.4502 1.010873  6.016544E-6
248 16.7942 1.009619  5.362718E-6
249 -5.1443 0.998877 -6.306630E-7
250 18.3612 1.007949  4.499228E-6
251 17.2528 0.991899 -4.619819E-6
252 -7.2082 1.003822  2.195960E-6
253 -18.3304 1.036287  2.100529E-5
254 18.1319 1.019453  1.134448E-5
255 16.9089 1.023137  1.359393E-5
256 -19.7828 1.028673  1.697126E-5
257 17.0235 0.999253 -4.452855E-7
258 -9.3868 1.010567  6.347204E-6
259 -4.1506 1.013789  8.343667E-6
260 17.2528 1.025458  1.551779E-5
261 4.9459 0.999043 -5.878808E-7
262 17.9408 1.009524  5.890360E-6
263 -6.0998 1.000608  3.786699E-7
264 -4.7621 1.009023  5.661989E-6
265 -6.9789 0.997687 -1.461999E-6
266 17.0617 1.019360  1.232450E-5
267 -7.4758 1.019675  1.261502E-5
268 -6.1763 1.004290  2.770390E-6
269 16.2591 1.019912  1.295086E-5
270 -3.2333 1.014073  9.218587E-6
271 16.3738 0.993545 -4.258444E-6
272 17.4057 1.035177  2.337045E-5
273 -19.3241 1.024732  1.654717E-5
274 16.6795 1.006841  4.609101E-6
275 -3.6920 1.007046  4.781190E-6
276 18.4377 1.005235  3.576998E-6
277 -19.7445 1.008147  5.605593E-6
278 17.8644 1.015509  1.074586E-5
279 16.1827 1.006967  4.860484E-6
280 18.2083 0.996871 -2.198370E-6
281 16.2591 1.008084  5.718179E-6
282 18.3230 1.013731  9.780288E-6
283 -5.9852 1.015175  1.088331E-5
284 -19.8974 1.019233  1.388815E-5
285 5.1752 1.005907  4.294581E-6
286 15.1125 1.006397  4.682265E-6
287 17.7115 0.988230 -8.674251E-6
288 16.9471 1.002081  1.544311E-6
289 5.3281 1.013375  9.990795E-6
290 18.1319 0.999042 -7.202392E-7
291 -6.0998 0.980644 -1.465400E-5
292 18.7052 1.024873  1.895726E-5
293 -5.1443 0.992273 -5.929131E-6
294 18.6670 0.994252 -4.439468E-6
295 16.2973 0.985220 -1.149234E-5
296 16.8706 1.007868  6.158291E-6
297 18.7817 1.022593  1.780090E-5
298 -7.6669 1.021086  1.672346E-5
299 0.6652 1.020622  1.646336E-5
300 -0.8636 1.017087  1.373032E-5
301 -19.6299 1.027569  2.229924E-5
302 16.9471 0.999129 -7.094038E-7
303 -8.8899 1.003013  2.468935E-6
304 17.3293 1.025332  2.089306E-5
305 1.3914 0.998950 -8.714866E-7
306 15.9916 1.016308  1.362490E-5
307 -3.5773 1.001072  9.016041E-7
308 -5.7941 1.011121  9.411309E-6
309 3.9903 0.989186 -9.210273E-6
310 -6.0234 1.012188  1.044761E-5
311 -5.7941 0.989083 -9.417528E-6
312 17.9790 1.008425  7.314153E-6
313 -19.1330 1.013572  1.185746E-5
314 5.5192 1.023602  2.075086E-5
315 17.1000 1.009172  8.114668E-6
316 -6.4820 1.006965  6.201655E-6
317 10.2967 1.013718  1.229071E-5
318 5.7867 1.004513  4.069143E-6
319 17.2911 1.013996  1.269704E-5
320 19.1256 1.033049  3.016912E-5
321 18.9345 1.038637  3.548999E-5
322 4.7930 1.003328  3.076178E-6
323 -19.8210 1.019302  1.795072E-5
324 -18.7126 1.007718  7.221812E-6
325 -1.1312 0.991766 -7.752581E-6
326 17.9408 0.975289 -2.340831E-5
327 -4.2653 1.011074  1.055493E-5
328 -5.8705 1.024336  2.333685E-5
329 -7.4758 0.992226 -7.499761E-6
330 18.4377 1.026155  2.538718E-5
331 18.2466 1.006866  6.704916E-6
332 -18.7890 1.028446  2.794744E-5
333 -5.8705 0.996267 -3.689640E-6
334 18.8581 1.007823  7.778906E-6
335 15.3800 1.018102  1.810868E-5
336 -19.7063 1.030145  3.033623E-5
337 2.4998 1.004905  4.965582E-6
338 18.1701 1.004107  4.182481E-6
339 -16.0754 1.037948  3.887715E-5
340 -7.3993 1.012501  1.288339E-5
341 6.3218 0.991311 -9.008193E-6
342 -8.5842 1.006764  7.053199E-6
343 -13.6675 0.995648 -4.565353E-6
344 18.8581 1.024514  2.586617E-5
345 16.2973 0.997306 -2.859717E-6
346 18.1701 1.011932  1.273786E-5
347 4.4872 1.026094  2.802012E-5
348 -6.2909 1.012959  1.399633E-5
349 16.1827 1.005260  5.714031E-6
350 3.4935 1.013181  1.440199E-5
351 -6.1381 1.015636  1.718393E-5
352 -18.3304 1.014283  1.578785E-5
353 -7.4376 1.026622  2.959573E-5
354 15.1889 1.017075  1.909107E-5
355 -4.6475 1.024813  2.790261E-5
356 16.9089 1.009697  1.096698E-5
357 -7.0554 1.023087  2.625984E-5
358 16.4884 1.005285  6.045466E-6
359 17.4057 1.011306  1.300591E-5
360 4.2961 0.995464 -5.247325E-6
361 -17.4513 1.001338  1.556178E-6
362 4.6401 1.048315  5.652973E-5
363 -18.8272 0.996890 -3.659881E-6
364 -19.2095 1.012457  1.473910E-5
365 -19.6681 0.997898 -2.501367E-6
366 5.0223 0.998026 -2.362197E-6
367 3.1495 1.003333  4.009791E-6
368 -7.6287 1.019661  2.378781E-5
369 17.6733 1.026079  3.172802E-5
370 15.1507 1.008907  1.089673E-5
371 -3.3098 1.004217  5.187818E-6
372 16.6031 1.018572  2.297179E-5
373 -7.3229 1.021620  2.688973E-5
374 -10.2276 0.993515 -8.110443E-6
375 2.8820 1.000932  1.172247E-6
376 -6.3674 1.005661  7.157838E-6
377 4.0668 1.021755  2.765602E-5
378 -6.5585 1.010441  1.334550E-5
379 -6.9025 1.022234  2.857321E-5
380 17.5968 0.988230 -1.520807E-5
381 5.8632 1.010587  1.375245E-5
382 3.4553 1.005048  6.592601E-6
383 -4.8768 1.000066  8.679641E-8
384 -8.1255 1.022905  3.023773E-5
385 2.4998 1.006381  8.469400E-6
386 -8.5842 1.009731  1.298433E-5
387 18.7817 1.016229  2.177036E-5
388 16.1827 1.007042  9.497630E-6
389 18.2083 1.024142  3.273179E-5
390 17.5586 1.008448  1.151499E-5
391 17.2528 1.034231  4.690372E-5
392 17.5968 1.012905  1.777549E-5
393 -6.6349 1.026898  3.724680E-5
394 18.2466 1.020139  2.803424E-5
395 -7.4758 0.992393 -1.064448E-5
396 15.8387 0.998117 -2.649141E-6
397 -5.4883 1.009779  1.382785E-5
398 18.0172 1.018698  2.657752E-5
399 15.8387 1.001662  2.374515E-6
400 -19.7063 1.027308  3.922021E-5
401 16.5266 1.000355  5.128929E-7
402 18.1319 1.014361  2.083890E-5
403 16.6795 1.020103  2.932200E-5
404 17.2911 1.013593  1.992937E-5
405 -2.6982 1.008713  1.284058E-5
406 18.6288 0.988545 -1.696751E-5
407 16.8324 1.028006  4.169642E-5
408 -19.6681 1.020322  3.040971E-5
409 -6.2527 1.008037  1.208882E-5
410 -7.3229 1.020240  3.059714E-5
411 17.6733 1.031283  4.753109E-5
412 -19.4770 1.011637  1.777009E-5
413 17.7879 1.007268  1.115484E-5
414 -6.9407 1.026249  4.049068E-5
415 -6.6732 1.018650  2.891308E-5
416 0.9709 1.007271  1.132933E-5
417 -6.0234 1.024839  3.889724E-5
418 16.8324 0.995032 -7.818050E-6
419 -10.3805 1.009410  1.488277E-5
420 -18.9801 1.018089  2.875359E-5
421 16.8706 1.009575  1.529558E-5
422 18.1701 1.013178  2.115632E-5
423 2.8820 1.030883  4.982489E-5
424 18.8581 0.994126 -9.524291E-6
425 18.8963 1.031957  5.206928E-5
426 19.1256 1.032772  5.365928E-5
427 16.1827 1.013091  2.154045E-5
428 -19.2859 1.039135  6.471002E-5
429 -8.0109 1.021671  3.600906E-5
430 -6.7496 1.015712  2.623460E-5
431 -1.8956 0.997678 -3.896531E-6
432 -18.0246 1.002474  4.171386E-6
433 19.0874 1.013676  2.317085E-5
434 16.4502 1.025138  4.279663E-5
435 -3.9213 0.997476 -4.317712E-6
436 -18.6744 1.014091  2.422281E-5
437 -17.6424 1.009187  1.586779E-5
438 16.3355 0.999006 -1.724325E-6
439 -6.5585 1.004322  7.537773E-6
440 3.0348 1.018101  3.171789E-5
441 3.1495 1.001818  3.201467E-6
442 4.0668 0.977512 -3.978383E-5
443 -6.3292 1.006021  1.070193E-5
444 18.6670 1.009608  1.716047E-5
445 2.8820 1.016714  2.999326E-5
446 16.4502 1.023088  4.162747E-5
447 -19.7445 1.006253  1.132690E-5
448 -8.5460 1.022029  4.009446E-5
449 -18.6744 1.029070  5.315833E-5
450 17.3675 0.995382 -8.484254E-6
451 18.6670 1.005268  9.724515E-6
452 -17.8717 1.003174  5.886371E-6
453 17.2911 1.020040  3.733940E-5
454 4.5254 1.018679  3.496543E-5
455 18.5523 1.005161  9.706586E-6
456 -5.7559 1.006074  1.147614E-5
457 3.4935 0.999089 -1.729407E-6
458 -5.0679 1.006560  1.250920E-5
459 16.8706 0.989461 -2.018970E-5
460 -9.0046 0.985057 -2.875906E-5
461 -3.2715 0.994739 -1.017226E-5
462 -14.1261 0.984139 -3.080929E-5
463 -4.8386 1.020779  4.054680E-5
464 -9.9219 1.017292  3.389713E-5
465 3.7228 1.017025  3.352627E-5
466 3.4170 1.027004  5.342074E-5
467 -19.0948 1.012663  2.516536E-5
468 -4.3799 1.027424  5.474690E-5
469 17.7879 1.003692  7.403380E-6
470 18.7817 1.000984  1.981943E-6
471 19.0492 1.009235  1.868719E-5
472 15.4183 1.025249  5.132386E-5
473 15.1889 1.008636  1.763319E-5
474 2.1940 1.018528  3.800331E-5
475 17.1000 0.996325 -7.570703E-6
476 -0.9401 1.027521  5.695619E-5
477 -0.3668 1.000272  5.649628E-7
478 -18.6361 0.990643 -1.953885E-5
479 -5.0679 1.006314  1.324311E-5
480 -17.9100 1.008756  1.844769E-5
481 -1.5898 0.994522 -1.159201E-5
482 -6.5967 1.005138  1.092143E-5
483 -5.2972 1.010590  2.260936E-5
484 19.0110 1.008554  1.834286E-5
485 17.0617 1.009696  2.088315E-5
486 -19.5152 1.003624  7.840436E-6
487 -4.4564 1.016127  3.504219E-5
488 18.2083 1.032532  7.099867E-5
489 -19.2859 1.021799  4.778245E-5
490 -17.8335 1.030817  6.784744E-5
491 -19.1330 0.992136 -1.738915E-5
492 3.3788 1.005416  1.202845E-5
493 1.5442 1.012874  2.871673E-5
494 3.6846 1.017306  3.877003E-5
495 1.0474 1.016764  3.771891E-5
496 17.7115 1.013678  3.090766E-5
497 15.6476 1.015460  3.508523E-5
498 15.4183 1.018225  4.153916E-5
499 15.4947 1.018840  4.312717E-5
500 16.1827 1.018957  4.358045E-5
501 6.1307 0.993628 -1.471096E-5
502 -19.5152 0.999359 -1.487312E-6
503 17.4057 1.020968  4.882805E-5
504 16.4120 1.013383  3.129706E-5
505 -16.4958 1.020020  4.701835E-5
506 -18.9801 1.011340  2.674758E-5
507 19.0492 0.992289 -1.826509E-5
508 18.4377 1.018788  4.469169E-5
509 17.4822 0.998617 -3.303573E-6
510 2.8055 1.002352  5.641672E-6
511 -6.6349 0.986676 -3.209698E-5
512 -17.6042 1.010362  2.506693E-5
513 3.9521 1.005360  1.302224E-5
514 17.3675 1.009141  2.230088E-5
515 -19.5152 1.014416  3.531536E-5
516 2.1558 1.002823  6.943657E-6
517 3.7610 1.017025  4.205711E-5
518 -9.4250 1.013152  3.262669E-5
519 17.0617 1.023405  5.830115E-5
520 17.4439 1.030532  7.637082E-5
521 -19.4006 0.999269 -1.835123E-6
522 17.3675 1.009159  2.310099E-5
523 16.2591 1.010251  2.596272E-5
524 6.7422 1.014708  3.740374E-5
525 16.6413 1.014289  3.648800E-5
526 3.0348 1.004823  1.236594E-5
527 16.5266 1.007891  2.031584E-5
528 -7.7815 1.004099  1.059760E-5
529 -18.4833 1.036256  9.411385E-5
530 4.2961 1.029543  7.700323E-5
531 -5.6030 1.014518  3.799513E-5
532 5.2134 1.018052  4.743691E-5
533 -19.7445 1.020479  5.403395E-5
534 18.6288 1.023874  6.324882E-5
535 -6.5967 0.967706 -8.590148E-5
536 16.1062 0.983661 -4.363816E-5
537 18.3230 1.008496  2.278387E-5
538 -6.8643 1.009059  2.439190E-5
539 18.8199 0.993192 -1.840482E-5
540 -3.8066 1.029910  8.118183E-5
541 -6.9789 1.002499  6.810574E-6
542 16.6031 1.010747  2.940485E-5
543 -5.8705 1.000913  2.509269E-6
544 2.1558 1.024099  6.646695E-5
545 -15.5403 0.989087 -3.021881E-5
546 17.5968 1.020499  5.699107E-5
547 17.2146 0.987183 -3.577452E-5
548 -7.2465 1.023150  6.487323E-5
549 17.1000 0.998875 -3.165512E-6
550 -5.3737 1.008138  2.298744E-5
551 -8.6224 1.001210  3.430121E-6
552 4.9841 1.008696  2.475902E-5
553 17.2528 1.023207  6.633152E-5
554 18.7052 0.995906 -1.174841E-5
555 6.6658 1.000773  2.227127E-6
 4.508603 360.00  10.00 -0.00 0.09
  0 -0.0228 0.817935 -1.025112E-5 
  1 -0.9019 0.827347 -9.727712E-6 
  2 -12.4444 1.062583  3.529351E-6 
  3 -9.6161 1.023284  1.314682E-6 
  4 -1.1312 1.038334  2.167547E-6 
  5 10.7936 1.006210  3.517467E-7 
  6 14.0423 1.022972  1.303678E-6 
  7 3.4553 0.989036 -6.235854E-7 
  8 9.5323 1.006541  3.729105E-7 
  9 0.8945 1.042221  2.413701E-6 
 10 -12.2533 1.007206  4.132006E-7 
 11 -12.5973 1.006581  3.785468E-7 
 12 16.5649 1.036104  2.083913E-6 
 13 -17.0691 1.017445  1.010667E-6 
 14 -0.4432 0.991887 -4.718411E-7 
 15 -0.2139 1.006696  3.910845E-7 
 16 -13.0560 1.003441  2.018517E-7 
 17 12.5899 1.017607  1.037603E-6 
 18 1.0856 1.011704  6.931123E-7 
 19 0.8181 1.036588  2.177737E-6 
 20 0.3212 1.015920  9.525833E-7 
 21 1.6589 1.009109  5.480871E-7 
 22 0.3976 1.013981  8.460757E-7 
 23 -0.9401 1.020136  1.225786E-6 
 24 -0.6725 1.017683  1.083101E-6 
 25 18.7434 1.007775  4.792856E-7 
 26 16.4120 1.012883  7.993804E-7 
 27 -1.6663 1.038235  2.388520E-6 
 28 -0.0992 0.989021 -6.906612E-7 
 29 -18.7890 1.008647  5.478397E-7 
 30 -19.0183 1.024994  1.595160E-6 
 31 0.6270 0.988599 -7.331038E-7 
 32 3.2259 1.003479  2.254383E-7 
 33 0.8181 1.021243  1.387369E-6 
 34 -0.6725 0.990420 -6.306936E-7 
 35 -13.8968 1.008617  5.719437E-7 
 36 9.4559 1.024279  1.625081E-6 
 37 -0.2139 1.009823  6.631262E-7 
 38 -12.3298 0.997670 -1.586350E-7 
 39 12.3988 1.003868  2.657165E-7 
 40 -9.9601 0.993848 -4.263907E-7 
 41 16.1827 1.010330  7.225196E-7 
 42 11.9784 1.013188  9.309445E-7 
 43 -11.6800 1.011606  8.269274E-7 
 44 13.8130 0.998927 -7.720448E-8 
 45 0.3594 1.010297  7.478094E-7 
 46 14.2716 0.977834 -1.625474E-6 
 47 15.5329 1.006180  4.576833E-7 
 48 1.0092 1.024709  1.848085E-6 
 49 1.7353 1.029868  2.256479E-6 
 50 2.7673 1.010514  8.023985E-7 
 51 3.6081 1.014814  1.142213E-6 
 52 0.1683 1.029244  2.278266E-6 
 53 3.0348 1.015373  1.210190E-6 
 54 -15.4638 1.024573  1.954865E-6 
 55 -11.1449 1.014380  1.156134E-6 
 56 -10.2276 1.007236  5.880069E-7 
 57 5.2898 1.013393  1.100082E-6 
 58 5.9396 1.021626  1.795745E-6 
 59 -16.3811 0.997940 -1.729151E-7 
 60 11.9402 1.011903  1.010235E-6 
 61 7.7360 1.011067  9.496265E-7 
 62 2.9584 1.015164  1.315713E-6 
 63 -0.4050 0.983133 -1.479833E-6 
 64 -13.1706 1.010500  9.316348E-7 
 65 -9.1957 0.994404 -5.021133E-7 
 66 3.5317 1.028070  2.547288E-6 
 67 13.7748 1.024771  2.273504E-6 
 68 1.8118 1.023399  2.172175E-6 
 69 15.0743 1.033539  3.149236E-6 
 70 0.6270 1.003501  3.325105E-7 
 71 -17.4513 1.002122  2.038679E-7 
 72 2.5380 1.012718  1.236012E-6 
 73 -11.0685 1.004742  4.662175E-7 
 74 0.0919 1.041586  4.136294E-6 
 75 0.5123 1.017449  1.755788E-6 
 76 1.5442 1.005397  5.494310E-7 
 77 4.7165 1.000985  1.014346E-7 
 78 14.1570 1.022222  2.315598E-6 
 79 1.9647 1.002839  2.993423E-7 
 80 9.6470 0.996488 -3.746354E-7 
 81 -10.9538 1.022126  2.387884E-6 
 82 7.7742 0.991132 -9.683266E-7 
 83 2.9584 1.002195  2.425647E-7 
 84 -14.3555 1.011626  1.299601E-6 
 85 -12.1387 1.013058  1.476977E-6 
 86 -18.0628 0.992420 -8.675268E-7 
 87 9.1501 1.004497  5.207598E-7 
 88 6.7422 0.994914 -5.958898E-7 
 89 -13.9350 1.006061  7.185568E-7 
 90 -11.6418 1.005469  6.559909E-7 
 91 -13.9733 0.992303 -9.341631E-7 
 92 15.1889 0.996440 -4.371609E-7 
 93 13.2397 1.030198  3.752190E-6 
 94 15.6094 1.001249  1.570314E-7 
 95 12.3988 1.010391  1.321674E-6 
 96 5.4427 1.004120  5.302560E-7 
 97 -13.6675 1.001679  2.186423E-7 
 98 2.7291 1.019204  2.529988E-6 
 99 15.9533 0.988862 -1.484600E-6 
100 4.6783 0.998186 -2.446649E-7 
101 11.8255 1.012959  1.767984E-6 
102 14.4627 1.006107  8.429875E-7 
103 17.7115 1.005808  8.110426E-7 
104 5.5192 1.040787  5.761987E-6 
105 -11.0685 1.019663  2.810182E-6 
106 5.2134 1.011905  1.721130E-6 
107 -13.2088 1.006052  8.851183E-7 
108 -13.3617 1.009337  1.381418E-6 
109 -13.5528 0.999968 -4.766494E-9 
110 -12.1005 1.002619  3.964405E-7 
111 -3.9595 1.026268  4.022496E-6 
112 -9.2721 0.994752 -8.129028E-7 
113 7.8124 1.008137  1.274808E-6 
114 10.9465 1.017593  2.787939E-6 
115 11.2905 1.010884  1.744439E-6 
116 16.8706 1.013229  2.144438E-6 
117 0.8563 0.990778 -1.512037E-6 
118 -12.3298 1.011435  1.896144E-6 
119 -11.0685 1.015946  2.673912E-6 
120 1.3914 1.037385  6.339918E-6 
121 11.2905 1.020610  3.534546E-6 
122 1.5060 1.016438  2.850776E-6 
123 13.0868 1.009822  1.722454E-6 
124 12.2077 1.012109  2.147303E-6 
125 10.1056 1.011006  1.973420E-6 
126 -10.8774 0.999482 -9.382797E-8 
127 11.8638 0.996084 -7.179070E-7 
128 12.3988 1.013587  2.518223E-6 
129 12.6664 0.996563 -6.439783E-7 
130 11.2522 0.997634 -4.483268E-7 
131 12.2077 1.026902  5.152728E-6 
132 -8.4313 1.018260  3.535608E-6 
133 1.3914 1.029332  5.741607E-6 
134 6.3218 1.000919  1.818085E-7 
135 -7.0936 1.005254  1.050865E-6 
136 5.3663 1.002688  5.434374E-7 
137 -0.4050 1.015078  3.081540E-6 
138 16.4884 1.008564  1.769157E-6 
139 -12.7502 1.016658  3.477858E-6 
140 3.1495 1.018495  3.902759E-6 
141 0.4358 1.004227  9.014936E-7 
142 -10.5716 1.010377  2.236716E-6 
143 -10.0748 0.999172 -1.803866E-7 
144 4.4108 1.007367  1.621707E-6 
145 9.0354 1.022729  5.055811E-6 
146 10.1056 1.008601  1.933419E-6 
147 8.5768 1.016560  3.761384E-6 
148 10.4114 1.002732  6.270292E-7 
149 -10.2659 1.033727  7.820990E-6 
150 -12.2151 0.993812 -1.449924E-6 
151 -14.5466 0.993838 -1.458596E-6 
152 10.1821 0.990911 -2.173653E-6 
153 -17.0309 1.012753  3.081356E-6 
154 -2.2396 1.026556  6.482240E-6 
155 -11.9476 1.015234  3.756434E-6 
156 4.6783 0.998587 -3.519236E-7 
157 8.1564 1.020955  5.272864E-6 
158 12.8575 0.990996 -2.288485E-6 
159 -8.6224 1.002370  6.085400E-7 
160 5.5956 1.013323  3.454785E-6 
161 -0.2521 1.003363  8.808575E-7 
162 -7.8198 1.011975  3.167783E-6 
163 14.7303 1.005779  1.543932E-6 
164 -14.7759 1.005729  1.545785E-6 
165 14.4627 0.999405 -1.620288E-7 
166 -11.6036 1.012386  3.408277E-6 
167 -1.3987 1.033229  9.233490E-6 
168 0.8181 1.006153  1.726469E-6 
169 -1.3987 1.005508  1.560574E-6 
170 10.1056 0.990001 -2.860692E-6 
171 -9.6926 1.015376  4.441673E-6 
172 -10.1130 0.997846 -6.281335E-7 
173 4.9841 1.005316  1.565510E-6 
174 2.1175 1.012280  3.650870E-6 
175 7.2773 1.000632  1.895531E-7 
176 13.8894 0.994834 -1.565205E-6 
177 -12.2533 1.017493  5.350743E-6 
178 3.9903 1.006289  1.941968E-6 
179 1.5060 1.019493  6.076106E-6 
180 1.8500 1.028117  8.846775E-6 
181 6.0925 1.003728  1.183876E-6 
182 -16.8780 1.013989  4.484433E-6 
183 3.7228 1.004308  1.393974E-6 
184 5.0605 0.983628 -5.346332E-6 
185 11.8255 1.017714  5.838333E-6 
186 -12.3298 1.013800  4.590175E-6 
187 8.8826 1.020308  6.817088E-6 
188 -13.0942 1.007895  2.674770E-6 
189 11.7873 0.994272 -1.958367E-6 
190 -11.2214 1.001569  5.411386E-7 
191 -11.6036 1.007764  2.702696E-6 
192 6.0160 0.994112 -2.068349E-6 
193 -3.0422 1.028042  9.939442E-6 
194 6.5129 0.999337 -2.372749E-7 
195 12.5899 1.007107  2.564629E-6 
196 2.5380 1.016574  6.034168E-6 
197 10.3732 0.994233 -2.118123E-6 
198 11.1376 1.001128  4.178962E-7 
199 -11.2978 1.001739  6.502527E-7 
200 -18.1011 1.012693  4.787348E-6 
201 -10.6099 1.014587  5.549767E-6 
202 10.9465 1.016670  6.398171E-6 
203 1.6207 1.019968  7.730680E-6 
204 0.6270 1.013502  5.272815E-6 
205 -12.4444 1.002296  9.044896E-7 
206 -13.5528 1.004813  1.912471E-6 
207 -10.3805 1.005515  2.210390E-6 
208 -11.7947 1.035503  1.435050E-5 
209 11.1376 1.021003  8.562379E-6 
210 6.7040 1.035031  1.440339E-5 
211 7.6977 1.000665  2.756563E-7 
212 -12.7120 1.004986  2.085249E-6 
213 7.3155 1.004128  1.740928E-6 
214 -10.6099 1.007600  3.232319E-6 
215 -11.9476 1.019972  8.565066E-6 
216 -10.8010 0.991563 -3.648544E-6 
217 9.9910 1.008180  3.566979E-6 
218 -13.6293 1.004171  1.833855E-6 
219 1.9647 1.003774  1.673315E-6 
220 -13.4382 1.004769  2.131715E-6 
221 10.0674 0.985346 -6.604673E-6 
222 -11.0685 1.011203  5.091021E-6 
223 3.6464 1.040459  1.853629E-5 
224 2.3469 0.998838 -5.367811E-7 
225 3.8375 1.023192  1.079969E-5 
226 -10.9538 1.019601  9.201531E-6 
227 4.5254 1.018303  8.662004E-6 
228 -9.3104 0.996710 -1.569754E-6 
229 6.7040 1.014786  7.110879E-6 
230 6.0160 1.018822  9.124454E-6 
231 9.4177 1.000894  4.368837E-7 
232 -15.7314 1.008785  4.327237E-6 
233 -18.5597 1.016503  8.193199E-6 
234 -16.5340 1.007867  3.936479E-6 
235 9.5323 1.021731  1.096044E-5 
236 -12.2916 1.020316  1.032728E-5 
237 7.6977 0.997474 -1.294045E-6 
238 9.2648 1.016913  8.732888E-6 
239 -12.4827 1.007781  4.048984E-6 
240 1.6589 0.985117 -7.805243E-6 
241 9.6088 0.983250 -8.852236E-6 
242 -11.1449 1.012472  6.642543E-6 
243 -12.5209 1.029139  1.563882E-5 
244 -12.5591 1.006713  3.630637E-6 
245 1.8882 1.003393  1.848912E-6 
246 0.6270 0.993782 -3.414535E-6 
247 -11.1832 0.996520 -1.925444E-6 
248 -12.1005 1.008837  4.927059E-6 
249 10.4114 1.020742  1.165193E-5 
250 -16.9544 1.012996  7.355735E-6 
251 5.1370 1.000377  2.148212E-7 
252 10.1821 1.021041  1.208937E-5 
253 -17.7189 0.987563 -7.199256E-6 
254 -9.8072 1.013166  7.678132E-6 
255 14.6921 1.009814  5.766247E-6 
256 2.6909 1.006786  4.016755E-6 
257 1.8500 1.003100  1.848511E-6 
258 15.3800 1.008042  4.830640E-6 
259 -1.2458 0.994200 -3.509414E-6 
260 -14.3555 1.017532  1.068628E-5 
261 -10.3423 0.997410 -1.590469E-6 
262 15.7622 1.002778  1.717941E-6 
263 5.2134 1.009877  6.153045E-6 
264 -5.5648 1.029336  1.840840E-5 
265 14.2716 0.990099 -6.257507E-6 
266 6.7040 1.012042  7.665658E-6 
267 10.0292 1.010534  6.754399E-6 
268 -1.3223 0.997980 -1.304248E-6 
269 9.1883 1.023022  1.497316E-5 
270 13.3926 1.007352  4.815581E-6 
271 -12.4444 1.006189  4.083162E-6 
272 11.0611 1.011373  7.556010E-6 
273 -16.8780 1.010096  6.754975E-6 
274 -10.4570 0.999770 -1.548531E-7 
275 10.8318 1.014904  1.011315E-5 
276 -12.5973 1.002320  1.585408E-6 
277 -14.5848 1.002932  2.017302E-6 
278 0.4358 1.025735  1.783096E-5 
279 -11.7947 1.001604  1.118867E-6 
280 12.9721 1.004810  3.379093E-6 
281 2.0793 1.012291  8.694389E-6 
282 -14.3555 1.011122  7.921679E-6 
283 14.0423 1.009486  6.803041E-6 
284 -13.1324 1.025002  1.805389E-5 
285 -12.5973 0.994094 -4.293692E-6 
286 -12.1769 0.989478 -7.701719E-6 
287 9.3412 1.004168  3.071694E-6 
288 11.1758 1.017030  1.263544E-5 
289 12.8575 1.017758  1.326515E-5 
290 11.6344 1.014965  1.125388E-5 
291 2.0029 0.995779 -3.196042E-6 
292 8.2328 1.035456  2.702386E-5 
293 -14.0115 0.992313 -5.897728E-6 
294 7.4302 1.022490  1.737138E-5 
295 10.3349 1.006313  4.908549E-6 
296 -0.1757 1.036085  2.824391E-5 
297 10.6789 1.023045  1.815728E-5 
298 -4.7239 1.014766  1.171118E-5 
299 -5.2972 1.001932  1.541995E-6 
300 -12.7884 1.020749  1.667377E-5 
301 7.5831 1.016137  1.305217E-5 
302 4.5254 1.019789  1.611064E-5 
303 8.5386 0.981765 -1.494263E-5 
304 -13.6675 1.028703  2.367357E-5 
305 -9.8454 1.013837  1.148667E-5 
306 -13.0942 1.008423  7.037604E-6 
307 -11.7182 1.005802  4.878478E-6 
308 -12.5973 1.007457  6.310573E-6 
309 -18.4450 1.001311  1.116943E-6 
310 -1.7045 1.009241  7.921473E-6 
311 11.9402 0.977320 -1.956468E-5 
312 -14.2408 1.002905  2.521702E-6 
313 2.2704 0.997161 -2.480640E-6 
314 0.3212 1.006113  5.374883E-6 
315 0.9327 1.007316  6.472940E-6 
316 -11.9093 1.005784  5.149678E-6 
317 9.6852 1.022599  2.024753E-5 
318 10.2585 0.979306 -1.865699E-5 
319 -11.9858 1.018676  1.694305E-5 
320 -13.2853 1.032802  2.994347E-5 
321 -14.4319 1.038311  3.519034E-5 
322 0.5887 1.010459  9.667114E-6 
323 11.7873 1.016355  1.521025E-5 
324 13.0104 1.012766  1.194533E-5 
325 6.5893 1.006877  6.474474E-6 
326 16.4884 1.011342  1.074406E-5 
327 10.1056 1.015381  1.465965E-5 
328 9.1501 1.006458  6.193172E-6 
329 7.1244 1.005681  5.481254E-6 
330 -10.9538 1.025113  2.437607E-5 
331 2.8820 1.002090  2.040732E-6 
332 -7.6669 1.003185  3.129178E-6 
333 7.1626 1.023173  2.290472E-5 
334 8.8443 1.016832  1.673757E-5 
335 8.0417 1.015176  1.518102E-5 
336 8.6915 0.998770 -1.237814E-6 
337 -11.9476 0.999204 -8.062491E-7 
338 17.6350 1.031053  3.162478E-5 
339 9.7234 0.997865 -2.187104E-6 
340 7.1244 1.015084  1.554541E-5 
341 -6.8643 0.984431 -1.614065E-5 
342 -11.5271 1.026893  2.804463E-5 
343 -17.5660 1.025373  2.661606E-5 
344 2.9584 1.003480  3.671838E-6 
345 12.3606 0.990904 -9.654099E-6 
346 14.4627 1.005638  6.018966E-6 
347 -0.3286 1.028206  3.028780E-5 
348 17.5586 1.014152  1.528558E-5 
349 -10.7627 1.004027  4.374973E-6 
350 -11.6800 1.028349  3.097617E-5 
351 0.4358 0.992980 -7.714676E-6 
352 -11.1832 1.004487  4.959687E-6 
353 6.6276 1.017154  1.907037E-5 
354 5.6720 1.010518  1.176063E-5 
355 6.0543 1.031013  3.487455E-5 
356 -12.9795 0.994251 -6.501999E-6 
357 -17.0691 1.037679  4.285645E-5 
358 11.2140 1.002010  2.298949E-6 
359 2.4233 1.009065  1.042870E-5 
360 7.4302 1.012694  1.468588E-5 
361 -2.9658 1.026406  3.072225E-5 
362 11.0611 1.034264  4.009048E-5 
363 -8.3931 1.017231  2.027446E-5 
364 4.1432 0.992421 -8.967635E-6 
365 -14.2790 0.999343 -7.822954E-7 
366 5.7103 1.012779  1.529006E-5 
367 2.3087 1.011251  1.353747E-5 
368 14.2334 1.009340  1.130030E-5 
369 10.6407 1.014135  1.719706E-5 
370 -12.3680 1.024341  2.977846E-5 
371 10.0674 1.005761  7.086571E-6 
372 -11.1449 0.994269 -7.089211E-6 
373 15.0743 1.017296  2.151127E-5 
374 -14.0879 1.001001  1.252264E-6 
375 9.5323 1.015545  1.954726E-5 
376 9.4941 1.003333  4.214019E-6 
377 -9.4632 0.995557 -5.648118E-6 
378 -12.0622 1.010761  1.375442E-5 
379 -13.3617 1.004516  5.803814E-6 
380 -11.8711 1.003286  4.246145E-6 
381 -14.6612 1.009139  1.187251E-5 
382 9.7616 1.004261  5.565472E-6 
383 -10.0748 1.014865  1.951919E-5 
384 11.6727 1.042655  5.631220E-5 
385 -12.7884 1.008772  1.164224E-5 
386 0.2447 1.002105  2.808985E-6 
387 -12.5209 1.007141  9.579068E-6 
388 -0.2903 1.000519  6.994942E-7 
389 -11.0685 1.022288  3.021756E-5 
390 -15.8078 0.985161 -2.022542E-5 
391 -8.7371 1.022073  3.024491E-5 
392 4.1050 0.996004 -5.504650E-6 
393 7.3155 1.030207  4.182759E-5 
394 7.2773 1.029022  4.039925E-5 
395 -10.1512 1.009466  1.324658E-5 
396 -10.9538 1.017090  2.403979E-5 
397 2.0411 1.020881  2.952578E-5 
398 -19.4770 0.993820 -8.784765E-6 
399 6.8569 0.983763 -2.319936E-5 
400 0.9709 1.020724  2.976434E-5 
401 7.2009 1.006974  1.006823E-5 
402 0.5887 0.994253 -8.339098E-6 
403 -8.4313 0.990709 -1.355251E-5 
404 8.4621 1.004553  6.675572E-6 
405 -10.5334 0.986264 -2.024223E-5 
406 -12.1387 0.986542 -1.993482E-5 
407 -14.6230 1.007672  1.142147E-5 
408 -1.3987 1.028610  4.281244E-5 
409 -13.2853 0.990477 -1.432339E-5 
410 16.3738 1.020223  3.057119E-5 
411 6.1307 1.020146  3.060982E-5 
412 9.1501 1.011800  1.801982E-5 
413 9.8381 0.999086 -1.403120E-6 
414 -15.0816 1.003612  5.571726E-6 
415 8.0035 1.018370  2.848036E-5 
416 -13.1324 1.024530  3.822140E-5 
417 -10.9156 1.024464  3.830941E-5 
418 9.8381 1.008540  1.344016E-5 
419 -11.0303 0.984879 -2.391564E-5 
420 12.0549 1.007992  1.270350E-5 
421 -10.2276 1.002700  4.313922E-6 
422 -2.8893 1.002593  4.162927E-6 
423 12.7046 1.000015  2.364615E-8 
424 12.6664 0.992549 -1.208001E-5 
425 9.7616 1.030281  4.933788E-5 
426 -13.6675 1.017364  2.843087E-5 
427 -9.4632 1.008130  1.337756E-5 
428 1.5442 1.020534  3.395273E-5 
429 1.7353 0.998415 -2.632834E-6 
430 -14.7759 1.016207  2.706203E-5 
431 12.2460 1.016518  2.771475E-5 
432 -11.6418 1.003216  5.422747E-6 
433 14.7303 1.007241  1.226755E-5 
434 5.7485 1.025286  4.304791E-5 
435 -12.7120 0.996962 -5.196290E-6 
436 -12.3298 1.021756  3.739871E-5 
437 -7.0936 1.005506  9.510481E-6 
438 -9.4250 1.014968  2.597857E-5 
439 12.8957 0.988381 -2.026333E-5 
440 -5.6794 0.998594 -2.462869E-6 
441 5.8632 1.031669  5.575934E-5 
442 9.5705 1.008574  1.516864E-5 
443 -12.5591 1.022832  4.058365E-5 
444 0.5887 1.008423  1.504300E-5 
445 -13.4764 1.007997  1.435026E-5 
446 -10.3423 0.982364 -3.179721E-5 
447 3.3024 1.012965  2.348573E-5 
448 -15.0816 1.013784  2.508686E-5 
449 13.2015 1.022976  4.201524E-5 
450 -11.3360 1.007043  1.293939E-5 
451 8.7679 1.007708  1.422794E-5 
452 -9.8072 1.009471  1.756337E-5 
453 -13.9733 1.026148  4.871854E-5 
454 8.0799 1.006206  1.161629E-5 
455 10.8700 1.041226  7.753151E-5 
456 9.7234 1.017929  3.387538E-5 
457 -9.3486 1.008565  1.625723E-5 
458 -11.2596 0.982798 -3.280383E-5 
459 0.0154 1.004935  9.455198E-6 
460 -6.2909 0.990735 -1.783103E-5 
461 -7.7815 1.006397  1.236795E-5 
462 9.7999 1.003922  7.617459E-6 
463 6.3982 0.994990 -9.775206E-6 
464 -10.4952 0.999622 -7.408548E-7 
465 10.2967 1.017299  3.406538E-5 
466 14.1570 1.028691  5.675738E-5 
467 -12.2151 1.018858  3.747607E-5 
468 10.4114 1.004319  8.622373E-6 
469 -14.8141 1.021040  4.219201E-5 
470 13.2397 0.996829 -6.388239E-6 
471 -12.7120 1.012030  2.434338E-5 
472 17.5968 1.029485  5.993546E-5 
473 -2.7364 1.016943  3.459508E-5 
474 -12.4444 1.012050  2.471512E-5 
475 7.3537 1.010075  2.075698E-5 
476 -2.3160 0.994290 -1.181789E-5 
477 5.6338 0.995988 -8.339635E-6 
478 -18.9037 0.976502 -4.906608E-5 
479 -13.1706 1.026328  5.522236E-5 
480 7.9271 0.982824 -3.618545E-5 
481 8.6150 0.998643 -2.871701E-6 
482 -10.6481 1.009052  1.923959E-5 
483 0.5505 1.004363  9.315898E-6 
484 -14.5848 1.022082  4.735333E-5 
485 -11.3360 1.037101  7.991091E-5 
486 8.9590 1.011825  2.558114E-5 
487 -10.9921 1.014875  3.232067E-5 
488 4.8694 1.010310  2.250163E-5 
489 5.0223 1.003303  7.240976E-6 
490 -10.2276 1.018101  3.985153E-5 
491 -15.9989 0.996799 -7.078977E-6 
492 -4.7621 0.972365 -6.137473E-5 
493 -8.3931 1.020492  4.570924E-5 
494 12.7810 1.010099  2.262365E-5 
495 10.7171 1.016154  3.634691E-5 
496 3.8375 1.008856  2.001176E-5 
497 9.9910 0.998626 -3.118001E-6 
498 16.3355 1.005039  1.148630E-5 
499 11.0611 1.016134  3.693214E-5 
500 12.9721 1.011142  2.561537E-5 
501 -17.2220 0.995717 -9.887984E-6 
502 11.2522 1.012062  2.796768E-5 
503 -12.7120 1.001145  2.666016E-6 
504 -9.1575 1.022841  5.341645E-5 
505 -11.1449 1.034790  8.170670E-5 
506 10.4878 1.020790  4.903497E-5 
507 16.4502 1.014760  3.496015E-5 
508 13.0104 1.010274  2.443819E-5 
509 7.6213 1.004858  1.160360E-5 
510 18.7434 0.994402 -1.342944E-5 
511 13.0486 0.992113 -1.899879E-5 
512 1.1620 1.009075  2.195496E-5 
513 13.7748 0.999211 -1.916424E-6 
514 17.1382 0.998075 -4.697104E-6 
515 -10.9156 1.019621  4.806800E-5 
516 -10.7245 1.010011  2.462829E-5 
517 -8.2020 1.018680  4.614620E-5 
518 -11.0303 1.017273  4.284885E-5 
519 -15.5403 1.008189  2.039752E-5 
520 -3.6537 1.004006  1.002149E-5 
521 -12.1387 1.014729  3.699592E-5 
522 18.1319 0.997299 -6.811733E-6 
523 -10.9538 1.006185  1.566306E-5 
524 6.0925 0.991047 -2.276864E-5 
525 14.3099 1.002330  5.950987E-6 
526 -8.0873 1.003247  8.326281E-6 
527 -13.1706 1.007150  1.840907E-5 
528 14.3863 1.023904  6.179686E-5 
529 3.4553 1.042659  1.107365E-4 
530 13.8130 1.030173  7.864486E-5 
531 -0.4432 1.002682  7.018419E-6 
532 -11.3743 1.010166  2.671375E-5 
533 -17.4131 1.016869  4.450940E-5 
534 5.6338 1.033243  8.806920E-5 
535 -15.2727 0.991513 -2.257473E-5 
536 5.1370 0.999175 -2.204518E-6 
537 -9.9601 1.013105  3.514129E-5 
538 12.8957 1.005956  1.603599E-5 
539 9.8381 1.009625  2.601867E-5 
540 -11.8711 1.023039  6.253213E-5 
541 -14.4701 1.007154  1.949476E-5 
542 8.7297 1.016607  4.543793E-5 
543 -3.5391 1.007169  1.969457E-5 
544 -17.5660 1.010472  2.888305E-5 
545 3.4170 0.999356 -1.784342E-6 
546 10.8700 1.029736  8.266907E-5 
547 -9.6161 1.007526  2.100678E-5 
548 10.0674 1.011731  3.287335E-5 
549 -9.6926 1.003134  8.816474E-6 
550 10.8318 0.982447 -4.958170E-5 
551 -17.5278 1.006497  1.842573E-5 
552 12.1313 1.024559  6.992130E-5 
553 -2.9275 1.008904  2.544902E-5 
554 -14.5466 1.015420  4.424713E-5 
555 12.7810 1.008966  2.582995E-5 
 4.509989  90.00  10.00 -0.00 0.09
  0 -0.1375 0.890397 -6.171176E-6 
  1 -1.4752 0.889890 -6.203898E-6 
  2 -6.7878 1.118144  6.662726E-6 
  3 0.5887 1.112812  6.369584E-6 
  4 0.1683 1.115759  6.545383E-6 
  5 0.5505 1.106012  6.004422E-6 
  6 0.7416 1.107622  6.107531E-6 
  7 0.3976 1.104359  5.935388E-6 
  8 -0.0610 1.085203  4.857801E-6 
  9 -0.1757 1.099774  5.703959E-6 
 10 0.2830 1.098596  5.653282E-6 
 11 0.0919 1.064146  3.689785E-6 
 12 -0.2139 1.056862  3.282075E-6 
 13 -0.7108 1.056684  3.283895E-6 
 14 -0.2903 1.047742  2.776726E-6 
 15 -3.5391 1.020857  1.218118E-6 
 16 -1.3223 1.023627  1.385975E-6 
 17 -3.7684 0.998958 -6.143222E-8 
 18 -3.5773 1.023484  1.390691E-6 
 19 -4.8768 1.050828  3.025343E-6 
 20 -3.0040 1.012607  7.543872E-7 
 21 -4.2653 1.034028  2.047437E-6 
 22 -10.8392 0.999612 -2.348518E-8 
 23 -6.3674 1.034535  2.102332E-6 
 24 14.1952 1.023837  1.460089E-6 
 25 -6.2527 1.023667  1.458928E-6 
 26 -12.3298 1.032776  2.033686E-6 
 27 -6.9407 1.022949  1.433585E-6 
 28 -6.9407 1.020589  1.295177E-6 
 29 -7.5904 1.003664  2.321495E-7 
 30 -6.2145 1.030637  1.955329E-6 
 31 -9.5397 1.035590  2.288518E-6 
 32 -11.9476 1.028128  1.822646E-6 
 33 -4.4946 1.023494  1.534386E-6 
 34 -9.3868 1.016262  1.070634E-6 
 35 -4.5328 1.039977  2.653575E-6 
 36 -8.9282 1.017610  1.178663E-6 
 37 -9.6543 1.011562  7.804659E-7 
 38 -6.0234 0.999922 -5.305924E-9 
 39 -5.3737 1.004650  3.194430E-7 
 40 -6.6349 1.011935  8.272113E-7 
 41 4.7930 1.027419  1.917730E-6 
 42 -6.7496 1.033603  2.372046E-6 
 43 -11.5271 1.046498  3.313078E-6 
 44 -4.4181 1.002973  2.138741E-7 
 45 -6.6732 1.030692  2.228940E-6 
 46 -5.1826 1.020530  1.505480E-6 
 47 9.5323 1.012533  9.281035E-7 
 48 -6.1763 1.012554  9.389755E-7 
 49 -8.3931 1.000399  3.018031E-8 
 50 -5.6794 1.015557  1.187261E-6 
 51 9.7999 1.017041  1.313941E-6 
 52 -5.7559 1.018853  1.468747E-6 
 53 -7.0554 1.004127  3.249158E-7 
 54 -6.0998 1.028216  2.244659E-6 
 55 8.5004 1.011321  9.102208E-7 
 56 -7.2847 1.004987  4.052788E-7 
 57 -7.4376 1.002797  2.297446E-7 
 58 -6.2527 1.016007  1.329111E-6 
 59 16.8706 1.020127  1.689563E-6 
 60 -0.8254 1.016240  1.378303E-6 
 61 -12.4062 1.020865  1.790391E-6 
 62 -5.3354 1.023808  2.065720E-6 
 63 8.3857 1.022360  1.961825E-6 
 64 -8.2784 1.027527  2.442346E-6 
 65 8.5004 1.012200  1.094697E-6 
 66 -11.4125 1.036117  3.277482E-6 
 67 -14.6994 1.023921  2.195493E-6 
 68 14.3481 1.020622  1.914357E-6 
 69 -5.0297 1.039104  3.671753E-6 
 70 -7.0936 1.002005  1.904579E-7 
 71 -5.6030 1.029666  2.850213E-6 
 72 -9.6926 1.022059  2.143878E-6 
 73 -6.0234 1.007945  7.811189E-7 
 74 -4.6092 1.028668  2.851358E-6 
 75 -5.7941 1.036327  3.655409E-6 
 76 -6.8260 1.019843  2.020005E-6 
 77 -9.9219 1.004116  4.239343E-7 
 78 -6.3674 1.019524  2.034408E-6 
 79 -4.3035 1.004026  4.244299E-7 
 80 3.9139 0.998736 -1.348572E-7 
 81 -3.6155 1.016458  1.776224E-6 
 82 10.2967 0.997232 -3.022843E-7 
 83 -7.5904 1.015717  1.736489E-6 
 84 5.8632 1.005282  5.904788E-7 
 85 4.4872 1.029835  3.374587E-6 
 86 -6.4820 1.000096  1.093809E-8 
 87 -6.7878 1.013784  1.596123E-6 
 88 -8.2784 1.027967  3.276812E-6 
 89 -7.0171 1.014856  1.761222E-6 
 90 -8.0491 1.003048  3.656531E-7 
 91 -7.0936 1.009093  1.103562E-6 
 92 -8.5842 0.995902 -5.032130E-7 
 93 9.6470 1.011906  1.479367E-6 
 94 2.6526 1.014437  1.815028E-6 
 95 -8.1255 1.024235  3.082634E-6 
 96 5.4427 0.994619 -6.925648E-7 
 97 -8.2020 1.029578  3.851451E-6 
 98 -2.5836 1.014145  1.863440E-6 
 99 4.0286 0.987668 -1.643689E-6 
100 -14.2026 1.019339  2.607855E-6 
101 9.6470 1.014422  1.967655E-6 
102 -9.1575 0.998555 -1.994297E-7 
103 -7.9344 0.989493 -1.467220E-6 
104 -7.6287 1.030465  4.303768E-6 
105 -3.0804 0.995224 -6.825603E-7 
106 -9.6543 0.998989 -1.461144E-7 
107 -12.1769 0.999311 -1.008293E-7 
108 10.9082 1.008580  1.269484E-6 
109 -6.9025 1.034187  5.116484E-6 
110 6.7422 1.012216  1.849386E-6 
111 10.4496 1.023425  3.587191E-6 
112 -10.7627 1.003417  5.292641E-7 
113 -6.2909 1.037379  5.856336E-6 
114 -6.9025 1.017370  2.752639E-6 
115 -7.2082 0.993634 -1.020355E-6 
116 9.7234 1.023822  3.861698E-6 
117 -8.1255 1.022355  3.665098E-6 
118 -3.5391 0.994276 -9.490887E-7 
119 5.4427 1.017127  2.872078E-6 
120 -4.6475 1.011934  2.023886E-6 
121 6.7040 1.007456  1.278701E-6 
122 7.9271 1.030874  5.354333E-6 
123 -7.0936 1.029312  5.140346E-6 
124 3.7610 1.017855  3.166306E-6 
125 -5.0297 1.019737  3.539020E-6 
126 -5.8705 1.008451  1.532140E-6 
127 -12.4062 1.014054  2.576244E-6 
128 -6.9789 1.008736  1.619165E-6 
129 4.3726 1.016352  3.064237E-6 
130 -9.1575 0.992309 -1.457063E-6 
131 7.2009 1.029252  5.602692E-6 
132 -6.5585 0.994514 -1.062269E-6 
133 -11.4507 1.021056  4.121615E-6 
134 8.0035 1.027777  5.496410E-6 
135 -5.1061 1.001328  2.655778E-7 
136 11.4051 1.000063  1.272424E-8 
137 9.0737 1.025907  5.294604E-6 
138 -6.6349 1.000984  2.032894E-7 
139 10.2585 1.014792  3.088252E-6 
140 -6.5585 1.031826  6.715778E-6 
141 -3.5391 1.019336  4.123745E-6 
142 -13.0560 1.009546  2.057587E-6 
143 -10.7245 1.019982  4.352412E-6 
144 -4.4181 1.028143  6.195011E-6 
145 -7.9344 1.005491  1.221413E-6 
146 -6.5203 1.002104  4.729644E-7 
147 -7.9344 1.004841  1.099650E-6 
148 -6.9025 1.009066  2.080615E-6 
149 8.6532 1.042832  9.932470E-6 
150 -7.6287 1.013913  3.259744E-6 
151 -5.7559 1.023207  5.493583E-6 
152 -6.9407 1.011284  2.698808E-6 
153 -1.0547 1.032102  7.756588E-6 
154 -0.7108 1.031466  7.680631E-6 
155 -5.6030 1.019744  4.868631E-6 
156 6.3218 1.014931  3.719329E-6 
157 -5.9470 1.004761  1.198030E-6 
158 -0.7490 1.012754  3.241735E-6 
159 7.5831 1.009367  2.404752E-6 
160 12.7810 1.019843  5.145607E-6 
161 -7.7815 1.019907  5.214021E-6 
162 4.2197 1.016418  4.343111E-6 
163 5.9778 0.999366 -1.693615E-7 
164 9.2265 0.994545 -1.471720E-6 
165 -2.6600 1.021317  5.808405E-6 
166 -4.4181 1.010097  2.778242E-6 
167 -9.2721 1.011015  3.060617E-6 
168 -7.3611 0.999628 -1.045203E-7 
169 11.8255 1.015253  4.321785E-6 
170 -5.4119 1.023090  6.605781E-6 
171 -6.2145 1.009515  2.748632E-6 
172 -8.0873 1.023214  6.770634E-6 
173 -12.2533 0.997919 -6.126851E-7 
174 18.0937 1.002848  8.465719E-7 
175 -8.0873 1.011676  3.504406E-6 
176 -5.7559 1.012582  3.812342E-6 
177 6.9333 1.006505  1.989729E-6 
178 -10.4952 1.029665  9.160242E-6 
179 8.4621 1.010648  3.319029E-6 
180 -2.0485 1.019948  6.276263E-6 
181 -3.0422 1.018083  5.742915E-6 
182 -6.2145 1.008684  2.783648E-6 
183 4.8312 1.010374  3.356494E-6 
184 7.5066 1.007686  2.509815E-6 
185 -5.7559 0.992049 -2.620570E-6 
186 5.6720 1.005316  1.768314E-6 
187 -3.2333 0.998828 -3.935964E-7 
188 -11.5654 1.035737  1.210662E-5 
189 -0.0610 1.020467  6.997027E-6 
190 -8.2784 1.046247  1.595464E-5 
191 11.7491 1.015696  5.463955E-6 
192 2.9966 1.010646  3.739784E-6 
193 5.0223 1.024500  8.683825E-6 
194 -11.5654 1.026560  9.498568E-6 
195 -7.9344 1.002741  9.890226E-7 
196 -4.1888 1.018925  6.890062E-6 
197 12.8957 1.027031  9.928787E-6 
198 -1.6281 1.025195  9.336467E-6 
199 10.6789 1.011378  4.253852E-6 
200 -5.8323 0.986927 -4.930412E-6 
201 -14.6230 1.008055  3.064504E-6 
202 -6.5967 1.004679  1.795915E-6 
203 6.5511 1.013766  5.329829E-6 
204 -2.2014 1.021629  8.447025E-6 
205 -5.4501 1.012409  4.888297E-6 
206 -6.6349 1.015033  5.972973E-6 
207 -10.3041 1.008243  3.303506E-6 
208 2.9584 1.011725  4.739262E-6 
209 -6.5203 1.027521  1.121945E-5 
210 12.2460 1.019882  8.174561E-6 
211 -8.2020 1.010187  4.224066E-6 
212 -7.0554 1.008567  3.582636E-6 
213 -8.1637 1.018887  7.965070E-6 
214 -9.4632 1.025985  1.105108E-5 
215 2.4615 0.984080 -6.827502E-6 
216 0.7034 1.031641  1.368341E-5 
217 -18.6744 1.016854  7.349719E-6 
218 -5.6794 1.025705  1.130259E-5 
219 -4.2653 1.008607  3.815758E-6 
220 -5.3737 0.996125 -1.732403E-6 
221 -4.9915 1.012265  5.527976E-6 
222 -10.2659 1.009047  4.111110E-6 
223 -13.7057 1.011825  5.417525E-6 
224 2.6909 1.013538  6.253154E-6 
225 -7.0171 0.999014 -4.590211E-7 
226 5.4045 1.022890  1.074561E-5 
227 -8.3166 0.989492 -4.973133E-6 
228 -3.1569 1.015011  7.161248E-6 
229 -7.9344 0.998463 -7.390136E-7 
230 -6.2909 1.013069  6.335425E-6 
231 3.9139 1.006076  2.968884E-6 
232 -6.9025 1.006509  3.206102E-6 
233 -7.9726 1.010574  5.249672E-6 
234 -7.5522 1.010548  5.278448E-6 
235 -6.6349 1.013503  6.810542E-6 
236 -9.1575 1.009591  4.875287E-6 
237 -11.7947 1.010328  5.291263E-6 
238 -8.0873 0.986288 -7.080297E-6 
239 -11.0303 1.027076  1.408958E-5 
240 -7.2465 1.009255  4.853768E-6 
241 -5.0679 0.995629 -2.309834E-6 
242 -17.6424 0.984634 -8.183880E-6 
243 -10.1512 1.026846  1.440805E-5 
244 -5.1826 1.015661  8.470158E-6 
245 -14.2026 1.011970  6.523159E-6 
246 -2.2396 1.010800  5.931009E-6 
247 3.9903 1.020017  1.107616E-5 
248 -12.5591 1.025241  1.407271E-5 
249 5.3281 1.018206  1.022775E-5 
250 -9.4250 1.021302  1.205733E-5 
251 -13.9350 1.012611  7.191718E-6 
252 5.2898 1.017397  9.995885E-6 
253 -10.4952 1.011238  6.505289E-6 
254 9.2648 1.015527  9.055013E-6 
255 -7.0171 1.011365  6.677474E-6 
256 -3.4626 1.013063  7.731881E-6 
257 -7.4376 1.013482  8.039078E-6 
258 -13.2853 1.011650  6.997574E-6 
259 4.5637 1.002518  1.523398E-6 
260 4.3343 1.019167  1.168328E-5 
261 -6.8643 1.011540  7.085503E-6 
262 -3.3480 1.019995  1.236669E-5 
263 -7.3611 1.026587  1.656345E-5 
264 -6.9789 1.029616  1.858404E-5 
265 -5.4119 0.998911 -6.881339E-7 
266 7.1626 0.997688 -1.471807E-6 
267 11.2522 1.017722  1.136275E-5 
268 -5.6412 0.991900 -5.230783E-6 
269 -7.2847 1.043091  2.802610E-5 
270 -7.1700 1.014830  9.714486E-6 
271 -12.4444 1.008365  5.518514E-6 
272 -4.4181 1.003200  2.125782E-6 
273 -4.4564 1.007328  4.903174E-6 
274 -9.6926 1.016774  1.130251E-5 
275 10.6789 1.036722  2.491690E-5 
276 -11.4507 1.023599  1.612465E-5 
277 -8.0491 1.019480  1.340381E-5 
278 -5.5648 1.008425  5.837454E-6 
279 3.8757 1.017148  1.196402E-5 
280 -5.2972 1.021233  1.491669E-5 
281 -6.0998 1.007482  5.292957E-6 
282 9.5323 0.993846 -4.382989E-6 
283 -11.4507 1.015059  1.079988E-5 
284 -11.1067 0.996571 -2.476347E-6 
285 -7.3993 1.014163  1.029658E-5 
286 6.2454 0.996579 -2.503958E-6 
287 -6.2909 1.015328  1.129616E-5 
288 11.4816 1.023049  1.710182E-5 
289 6.0925 1.025183  1.881167E-5 
290 -6.8260 1.000470  3.532999E-7 
291 14.7685 1.012004  9.088153E-6 
292 -8.0491 1.019762  1.506182E-5 
293 -3.7684 1.011078  8.499844E-6 
294 -13.5146 1.037667  2.909427E-5 
295 7.7742 1.023976  1.864215E-5 
296 -8.3548 1.031722  2.482947E-5 
297 -3.6920 1.010364  8.165467E-6 
298 -11.4507 1.022724  1.802212E-5 
299 -12.7884 1.012937  1.032766E-5 
300 9.8381 1.009134  7.340151E-6 
301 -9.6543 1.007252  5.865582E-6 
302 4.5637 1.007615  6.199563E-6 
303 -1.9720 1.016440  1.347191E-5 
304 -7.6287 1.020316  1.675604E-5 
305 -4.4946 1.026208  2.175565E-5 
306 -12.2533 1.015019  1.254822E-5 
307 -10.3805 1.012091  1.016733E-5 
308 -8.4313 1.020132  1.703749E-5 
309 5.3281 1.002432  2.071554E-6 
310 -8.4313 1.006253  5.359737E-6 
311 -2.0485 1.005980  5.159093E-6 
312 -6.2527 0.998031 -1.709046E-6 
313 -6.9025 1.009894  8.643839E-6 
314 -7.2847 1.015054  1.323582E-5 
315 4.1050 1.003214  2.844052E-6 
316 5.8632 1.012376  1.101862E-5 
317 -7.9726 1.014634  1.311086E-5 
318 -8.3548 1.019218  1.732652E-5 
319 -5.5265 1.031798  2.884744E-5 
320 6.8951 1.010404  9.497489E-6 
321 -8.5077 1.027596  2.534842E-5 
322 -5.4501 1.011121  1.027826E-5 
323 -3.8066 1.033875  3.150351E-5 
324 17.1764 1.017987  1.683069E-5 
325 -7.8580 1.016838  1.585329E-5 
326 -5.1443 1.032885  3.115166E-5 
327 8.3093 1.038749  3.693184E-5 
328 -6.8643 1.004249  4.074073E-6 
329 -6.0234 1.032899  3.174025E-5 
330 -8.9664 1.023887  2.318638E-5 
331 -11.7182 1.012636  1.233999E-5 
332 -0.1757 1.022042  2.165582E-5 
333 9.3794 1.004573  4.520491E-6 
334 -12.7884 1.028063  2.790513E-5 
335 -8.6988 1.010855  1.085897E-5 
336 3.2259 1.003377  3.397996E-6 
337 4.1815 0.994614 -5.452622E-6 
338 2.4233 1.021165  2.155506E-5 
339 3.6464 1.003957  4.053470E-6 
340 -8.8517 1.013969  1.439595E-5 
341 10.3349 1.006841  7.091877E-6 
342 -5.5265 1.028183  2.938962E-5 
343 12.5899 1.011181  1.172819E-5 
344 -8.4695 1.022719  2.397197E-5 
345 -2.7364 1.009192  9.755633E-6 
346 -4.3417 1.017985  1.920010E-5 
347 -10.7627 1.034043  3.655615E-5 
348 -10.4188 1.016589  1.791760E-5 
349 -4.6475 1.004335  4.709628E-6 
350 7.2391 1.029052  3.174383E-5 
351 13.2397 1.009633  1.058659E-5 
352 -8.0491 0.996748 -3.594246E-6 
353 -9.7690 1.028043  3.117564E-5 
354 16.8324 1.039402  4.405496E-5 
355 2.8820 1.016991  1.910674E-5 
356 -7.2847 1.017039  1.927073E-5 
357 7.5448 1.030027  3.415296E-5 
358 -6.6349 1.005606  6.412576E-6 
359 4.3726 1.020270  2.331818E-5 
360 -7.4376 1.009025  1.044068E-5 
361 -6.4438 1.026889  3.128388E-5 
362 -1.7045 1.034170  3.997974E-5 
363 -9.0810 1.024185  2.845624E-5 
364 -9.1575 1.003429  4.057562E-6 
365 -5.5648 1.004183  4.977755E-6 
366 -10.7245 1.000394  4.710348E-7 
367 -13.1324 0.991549 -1.016796E-5 
368 -6.5585 1.022489  2.721020E-5 
369 -5.9470 1.015688  1.908664E-5 
370 2.6144 1.007141  8.736703E-6 
371 -5.7559 0.996094 -4.805359E-6 
372 -9.1575 1.006371  7.880981E-6 
373 5.2134 1.006999  8.704670E-6 
374 -12.2533 1.008693  1.087166E-5 
375 -4.6092 1.018882  2.374313E-5 
376 -7.6669 1.012184  1.540385E-5 
377 -7.3993 1.023277  2.959042E-5 
378 -9.1193 1.032018  4.092309E-5 
379 -9.6926 1.016700  2.146119E-5 
380 -16.1136 0.997507 -3.220531E-6 
381 -5.8323 1.017205  2.235053E-5 
382 8.5386 1.011467  1.497627E-5 
383 -7.0936 1.020781  2.728731E-5 
384 3.1113 1.035581  4.697301E-5 
385 -10.8010 1.002438  3.236243E-6 
386 -5.9470 1.019829  2.645924E-5 
387 -3.5391 1.011406  1.530067E-5 
388 -8.6988 1.029691  4.004217E-5 
389 -4.9150 1.035270  4.781896E-5 
390 -4.4946 1.018341  2.499865E-5 
391 -5.1443 1.015819  2.167564E-5 
392 -5.7941 0.993587 -8.833095E-6 
393 2.8820 1.037662  5.215084E-5 
394 5.9014 1.040593  5.650500E-5 
395 -13.0560 1.003800  5.317468E-6 
396 4.4872 1.010246  1.441191E-5 
397 -17.8335 1.037846  5.351366E-5 
398 -9.1575 1.018402  2.615676E-5 
399 4.4108 0.993216 -9.692950E-6 
400 -3.1569 1.023773  3.414240E-5 
401 4.5637 1.017766  2.564840E-5 
402 -5.7559 1.024229  3.515941E-5 
403 -8.4313 1.025634  3.739000E-5 
404 -19.8210 0.987366 -1.852353E-5 
405 -4.3799 1.018717  2.758254E-5 
406 7.7360 1.026594  3.939160E-5 
407 -6.1763 1.013119  1.953183E-5 
408 -6.0998 1.009057  1.355300E-5 
409 -1.8192 1.006436  9.679542E-6 
410 -6.1381 1.007046  1.065104E-5 
411 14.5010 1.012606  1.915318E-5 
412 -5.6030 1.018477  2.821540E-5 
413 10.0292 1.012162  1.866635E-5 
414 -12.0240 1.026199  4.041337E-5 
415 -15.6550 1.018684  2.896599E-5 
416 -5.8705 0.993693 -9.826778E-6 
417 2.6144 1.015313  2.397945E-5 
418 5.9014 1.008867  1.395539E-5 
419 -5.5648 1.007213  1.140775E-5 
420 7.7360 1.006692  1.063694E-5 
421 -5.4119 1.032930  5.260454E-5 
422 -4.8768 1.013864  2.225647E-5 
423 -4.1888 0.994061 -9.582424E-6 
424 -18.4833 1.013194  2.139128E-5 
425 11.2522 1.021655  3.528271E-5 
426 12.9721 1.005399  8.840694E-6 
427 -11.4125 1.021530  3.542622E-5 
428 -8.8135 1.011757  1.944098E-5 
429 -4.5710 1.020860  3.466088E-5 
430 -5.2590 1.016896  2.821207E-5 
431 4.5637 1.018114  3.039357E-5 
432 5.9014 1.011628  1.960504E-5 
433 -5.4501 1.016007  2.711928E-5 
434 -8.1255 1.015451  2.630559E-5 
435 7.2773 1.019878  3.400533E-5 
436 3.7610 1.016321  2.805603E-5 
437 -8.7371 1.001022  1.764584E-6 
438 -9.4250 1.007366  1.278420E-5 
439 -2.2778 1.005079  8.858208E-6 
440 -2.7364 1.021350  3.741151E-5 
441 -10.1894 1.020991  3.695882E-5 
442 8.7297 1.007460  1.319694E-5 
443 11.2905 0.992247 -1.378079E-5 
444 -9.0428 1.009069  1.619684E-5 
445 -5.2208 1.038477  6.904599E-5 
446 -8.1255 1.017602  3.173643E-5 
447 -6.7496 1.026792  4.853395E-5 
448 0.2447 0.995653 -7.911422E-6 
449 -0.1757 1.016705  3.054777E-5 
450 -5.6030 1.000447  8.203393E-7 
451 -6.4438 1.011041  2.037964E-5 
452 -11.3360 1.010600  1.965798E-5 
453 -0.3286 1.026775  4.988718E-5 
454 -6.2527 1.007175  1.343057E-5 
455 -13.1706 1.033382  6.277950E-5 
456 0.1683 1.017503  3.307033E-5 
457 -6.7878 1.035489  6.736393E-5 
458 -5.5265 1.007160  1.365287E-5 
459 -8.4313 1.015182  2.908481E-5 
460 -8.8899 1.014853  2.858700E-5 
461 -8.2784 1.005488  1.061200E-5 
462 -13.0942 1.029100  5.652310E-5 
463 -6.5967 1.020602  4.020054E-5 
464 -5.9852 1.016417  3.218246E-5 
465 6.3218 1.027360  5.387794E-5 
466 4.4490 1.020842  4.123018E-5 
467 -13.4764 1.003568  7.090494E-6 
468 11.3669 1.017775  3.548480E-5 
469 -7.1700 1.027027  5.419994E-5 
470 -6.4056 1.034135  6.876444E-5 
471 -6.3292 1.015219  3.079794E-5 
472 -9.6543 1.004580  9.310235E-6 
473 -4.6857 1.010564  2.156983E-5 
474 -7.7815 1.014664  3.007734E-5 
475 -12.2151 1.004489  9.249182E-6 
476 -10.9921 1.022868  4.732643E-5 
477 -8.9282 1.020888  4.342175E-5 
478 -9.1193 1.013444  2.807163E-5 
479 -6.0616 1.025787  5.408638E-5 
480 -7.1318 0.999778 -4.671628E-7 
481 -9.6543 1.007271  1.538676E-5 
482 4.9076 0.999120 -1.870105E-6 
483 -9.9219 1.009369  2.000332E-5 
484 -12.0240 1.019055  4.086132E-5 
485 3.0731 1.026393  5.684788E-5 
486 -9.5397 1.015965  3.453725E-5 
487 -8.0873 1.006354  1.380748E-5 
488 -3.9213 1.012133  2.647923E-5 
489 -8.4313 1.001300  2.848545E-6 
490 -4.8768 1.025591  5.634201E-5 
491 1.7736 0.986670 -2.947636E-5 
492 6.6276 1.006909  1.534325E-5 
493 7.5831 1.015529  3.463825E-5 
494 1.2003 1.042174  9.447877E-5 
495 -8.2020 1.020629  4.641529E-5 
496 -13.3235 1.028917  6.534388E-5 
497 -3.8066 1.017751  4.028658E-5 
498 -9.9219 1.009507  2.166991E-5 
499 -3.2715 0.999089 -2.085008E-6 
500 -7.8580 1.016575  3.810545E-5 
501 -8.7371 1.012492  2.884169E-5 
502 -6.4056 1.002122  4.919342E-6 
503 6.7422 1.034205  7.965217E-5 
504 -6.5203 1.024661  5.767279E-5 
505 -7.2082 1.019044  4.472582E-5 
506 -8.7753 1.013465  3.175757E-5 
507 -5.2208 1.022073  5.228180E-5 
508 6.5511 1.014226  3.383976E-5 
509 -6.5585 1.008256  1.972217E-5 
510 -11.2978 1.004328  1.038147E-5 
511 -4.2270 0.973439 -6.398654E-5 
512 11.9784 1.012647  3.059466E-5 
513 -10.4570 0.973519 -6.433110E-5 
514 -6.6349 1.016099  3.927438E-5 
515 -6.5203 1.001536  3.762299E-6 
516 -4.6475 1.010152  2.497517E-5 
517 -11.9858 1.005384  1.330134E-5 
518 -5.3354 1.010279  2.549804E-5 
519 -16.4576 1.001593  3.968798E-6 
520 7.6595 0.998577 -3.560368E-6 
521 8.5768 0.990082 -2.491051E-5 
522 -8.1637 1.021065  5.312978E-5 
523 -12.0622 1.016694  4.228016E-5 
524 -6.3292 1.019359  4.923147E-5 
525 -5.6794 1.030928  7.897729E-5 
526 -9.7690 1.004630  1.187225E-5 
527 7.2391 1.006038  1.554707E-5 
528 -6.2145 1.021757  5.624798E-5 
529 -5.4883 1.032161  8.348603E-5 
530 5.6720 0.999823 -4.610893E-7 
531 -6.8260 1.015666  4.099998E-5 
532 5.7867 1.014139  3.715395E-5 
533 -14.8905 1.012421  3.277339E-5 
534 -8.4313 1.032244  8.542162E-5 
535 -9.0810 1.001985  5.280896E-6 
536 -4.8768 0.988188 -3.154650E-5 
537 -10.8010 0.995428 -1.226141E-5 
538 1.1238 1.029505  7.944135E-5 
539 -5.1061 0.990116 -2.671847E-5 
540 -3.3862 1.017780  4.825975E-5 
541 -10.1512 1.016949  4.618820E-5 
542 -8.5842 1.008203  2.244468E-5 
543 -4.3799 1.025640  7.043540E-5 
544 -9.8072 1.008720  2.404994E-5 
545 4.8312 1.015298  4.236285E-5 
546 -9.1193 1.015425  4.288307E-5 
547 -9.1957 1.020793  5.803809E-5 
548 -8.8899 1.017903  5.016984E-5 
549 -7.9726 1.007437  2.092457E-5 
550 -11.9093 0.972050 -7.894737E-5 
551 -9.8454 1.014699  4.168391E-5 
552 -9.7690 1.012233  3.482696E-5 
553 -2.8129 1.016569  4.735886E-5 
554 -3.4244 1.000143  4.100339E-7 
555 -8.4313 1.017809  5.130501E-5 
